# t09572g430x+000m0                                           
# 1253512947.kgf                                              
# data\m44.fits                                               
# xmin,xmax,dshft,yshift,fz:  12329.00  13153.00   0.00000   0.00000   1.00000
# vw,rp,ifabs:   0.0    28300.   0
#                                                                     
# wave(A)   obs.spec.  the.spec.  overplot1  overplot2  overplot3  overplot4
12535.000      1.0025     1.0000
12535.100      1.0025     1.0000
12535.200      1.0025     1.0000
12535.300      1.0024     1.0000
12535.400      1.0024     1.0000
12535.500      1.0024     1.0000
12535.600      1.0024     1.0000
12535.700      1.0023     1.0000
12535.800      1.0023     1.0000
12535.900      1.0023     0.9983
12536.000      1.0022     0.9983
12536.100      1.0022     0.9984
12536.200      1.0022     0.9984
12536.300      1.0022     0.9985
12536.400      1.0021     0.9985
12536.500      1.0021     0.9984
12536.600      1.0021     0.9984
12536.700      1.0020     0.9984
12536.800      0.9993     0.9984
12536.900      0.9954     0.9986
12537.000      0.9935     0.9987
12537.100      0.9934     0.9988
12537.200      0.9935     0.9988
12537.300      0.9938     0.9989
12537.400      0.9949     0.9989
12537.500      0.9972     0.9989
12537.600      0.9995     0.9989
12537.700      1.0015     0.9989
12537.800      1.0027     0.9989
12537.900      0.9999     0.9989
12538.000      0.9971     0.9989
12538.100      0.9983     0.9989
12538.200      0.9996     0.9989
12538.300      0.9986     0.9989
12538.400      0.9972     0.9989
12538.500      0.9963     0.9989
12538.600      0.9962     0.9989
12538.700      0.9973     0.9989
12538.800      0.9990     0.9989
12538.900      0.9974     0.9989
12539.000      0.9922     0.9989
12539.100      0.9898     0.9989
12539.200      0.9934     0.9989
12539.300      0.9984     0.9989
12539.400      1.0040     0.9989
12539.500      1.0086     0.9989
12539.600      1.0040     0.9988
12539.700      0.9994     0.9988
12539.800      0.9957     0.9988
12539.900      0.9933     0.9988
12540.000      0.9955     0.9988
12540.100      0.9984     0.9989
12540.200      0.9994     0.9989
12540.300      0.9997     0.9989
12540.400      1.0017     0.9989
12540.500      1.0048     0.9989
12540.600      1.0071     0.9989
12540.700      1.0076     0.9989
12540.800      1.0062     0.9988
12540.900      1.0033     0.9988
12541.000      0.9999     0.9987
12541.100      0.9963     0.9986
12541.200      0.9936     0.9985
12541.300      0.9977     0.9985
12541.400      1.0018     0.9985
12541.500      0.9982     0.9986
12541.600      0.9865     0.9987
12541.700      0.9514     0.9988
12541.800      0.9135     0.9989
12541.900      0.8821     0.9989
12542.000      0.8634     0.9989
12542.100      0.8745     0.9989
12542.200      0.9027     0.9989
12542.300      0.9354     0.9989
12542.400      0.9691     0.9989
12542.500      0.9954     0.9989
12542.600      1.0053     0.9989
12542.700      1.0078     0.9989
12542.800      1.0064     0.9989
12542.900      1.0052     0.9989
12543.000      1.0059     0.9989
12543.100      1.0066     0.9989
12543.200      1.0072     0.9989
12543.300      1.0074     0.9989
12543.400      1.0031     0.9989
12543.500      0.9982     0.9989
12543.600      1.0002     0.9989
12543.700      1.0043     0.9989
12543.800      1.0072     0.9989
12543.900      1.0077     0.9989
12544.000      1.0051     0.9989
12544.100      1.0010     0.9990
12544.200      0.9984     0.9990
12544.300      0.9984     0.9989
12544.400      0.9987     0.9989
12544.500      0.9991     0.9989
12544.600      0.9999     0.9989
12544.700      1.0023     0.9989
12544.800      1.0060     0.9988
12544.900      1.0118     0.9987
12545.000      1.0176     0.9985
12545.100      1.0128     0.9982
12545.200      1.0066     0.9978
12545.300      1.0025     0.9976
12545.400      1.0005     0.9976
12545.500      1.0008     0.9978
12545.600      1.0017     0.9981
12545.700      1.0025     0.9985
12545.800      1.0028     0.9987
12545.900      1.0026     0.9988
12546.000      1.0020     0.9989
12546.100      1.0020     0.9989
12546.200      1.0034     0.9989
12546.300      1.0047     0.9989
12546.400      1.0043     0.9989
12546.500      1.0030     0.9989
12546.600      1.0006     0.9989
12546.700      0.9981     0.9989
12546.800      0.9980     0.9989
12546.900      0.9981     0.9989
12547.000      0.9978     0.9989
12547.100      0.9973     0.9989
12547.200      0.9979     0.9989
12547.300      0.9993     0.9989
12547.400      1.0012     0.9989
12547.500      1.0032     0.9989
12547.600      1.0045     0.9988
12547.700      1.0046     0.9988
12547.800      1.0048     0.9987
12547.900      1.0056     0.9987
12548.000      1.0059     0.9986
12548.100      1.0030     0.9986
12548.200      0.9998     0.9986
12548.300      0.9966     0.9987
12548.400      0.9933     0.9987
12548.500      0.9896     0.9986
12548.600      0.9859     0.9985
12548.700      0.9843     0.9980
12548.800      0.9849     0.9968
12548.900      0.9887     0.9936
12549.000      0.9934     0.9864
12549.100      0.9967     0.9729
12549.200      0.9983     0.9527
12549.300      0.9989     0.9294
12549.400      0.9992     0.9106
12549.500      0.9996     0.9041
12549.600      1.0002     0.9129
12549.700      1.0006     0.9330
12549.800      1.0002     0.9563
12549.900      0.9998     0.9755
12550.000      0.9995     0.9879
12550.100      0.9991     0.9944
12550.200      0.9976     0.9971
12550.300      0.9960     0.9981
12550.400      0.9961     0.9985
12550.500      0.9965     0.9986
12550.600      0.9959     0.9987
12550.700      0.9948     0.9987
12550.800      0.9945     0.9987
12550.900      0.9955     0.9988
12551.000      0.9978     0.9988
12551.100      1.0009     0.9988
12551.200      1.0036     0.9988
12551.300      1.0046     0.9988
12551.400      1.0048     0.9988
12551.500      1.0041     0.9988
12551.600      1.0024     0.9988
12551.700      0.9992     0.9988
12551.800      0.9959     0.9988
12551.900      0.9970     0.9989
12552.000      0.9985     0.9989
12552.100      0.9993     0.9989
12552.200      1.0000     0.9989
12552.300      1.0007     0.9989
12552.400      1.0016     0.9989
12552.500      1.0029     0.9989
12552.600      1.0046     0.9989
12552.700      1.0063     0.9989
12552.800      1.0079     0.9989
12552.900      1.0080     0.9989
12553.000      1.0044     0.9989
12553.100      1.0000     0.9989
12553.200      0.9951     0.9989
12553.300      0.9904     0.9989
12553.400      0.9887     0.9989
12553.500      0.9882     0.9989
12553.600      0.9887     0.9989
12553.700      0.9893     0.9989
12553.800      0.9898     0.9989
12553.900      0.9900     0.9989
12554.000      0.9886     0.9989
12554.100      0.9866     0.9989
12554.200      0.9852     0.9988
12554.300      0.9851     0.9988
12554.400      0.9873     0.9988
12554.500      0.9912     0.9988
12554.600      0.9940     0.9989
12554.700      0.9940     0.9989
12554.800      0.9935     0.9989
12554.900      0.9927     0.9989
12555.000      0.9922     0.9989
12555.100      0.9939     0.9988
12555.200      0.9956     0.9988
12555.300      0.9951     0.9988
12555.400      0.9944     0.9987
12555.500      0.9939     0.9985
12555.600      0.9939     0.9982
12555.700      0.9949     0.9980
12555.800      0.9963     0.9979
12555.900      0.9958     0.9979
12556.000      0.9940     0.9981
12556.100      0.9924     0.9983
12556.200      0.9917     0.9985
12556.300      0.9923     0.9987
12556.400      0.9945     0.9988
12556.500      0.9964     0.9988
12556.600      0.9975     0.9987
12556.700      0.9980     0.9986
12556.800      0.9978     0.9985
12556.900      0.9976     0.9984
12557.000      0.9972     0.9984
12557.100      0.9968     0.9984
12557.200      0.9973     0.9985
12557.300      0.9980     0.9986
12557.400      0.9972     0.9987
12557.500      0.9924     0.9987
12557.600      0.9671     0.9987
12557.700      0.9279     0.9987
12557.800      0.8865     0.9987
12557.900      0.8446     0.9988
12558.000      0.8175     0.9988
12558.100      0.8310     0.9988
12558.200      0.8666     0.9988
12558.300      0.9168     0.9988
12558.400      0.9649     0.9988
12558.500      0.9893     0.9988
12558.600      1.0020     0.9988
12558.700      1.0004     0.9988
12558.800      0.9987     0.9988
12558.900      0.9994     0.9988
12559.000      1.0005     0.9988
12559.100      1.0013     0.9988
12559.200      1.0016     0.9988
12559.300      1.0014     0.9988
12559.400      1.0008     0.9988
12559.500      1.0004     0.9988
12559.600      1.0001     0.9988
12559.700      1.0002     0.9988
12559.800      1.0005     0.9988
12559.900      1.0005     0.9988
12560.000      0.9996     0.9988
12560.100      0.9989     0.9988
12560.200      0.9990     0.9988
12560.300      0.9991     0.9987
12560.400      0.9985     0.9987
12560.500      0.9975     0.9987
12560.600      0.9953     0.9987
12560.700      0.9929     0.9987
12560.800      0.9952     0.9987
12560.900      0.9989     0.9986
12561.000      1.0022     0.9985
12561.100      1.0043     0.9984
12561.200      1.0040     0.9981
12561.300      1.0019     0.9977
12561.400      1.0005     0.9967
12561.500      1.0003     0.9943
12561.600      0.9998     0.9886
12561.700      0.9983     0.9775
12561.800      0.9970     0.9594
12561.900      0.9969     0.9367
12562.000      0.9968     0.9156
12562.100      0.9945     0.9047
12562.200      0.9922     0.9087
12562.300      0.9908     0.9260
12562.400      0.9903     0.9490
12562.500      0.9915     0.9700
12562.600      0.9930     0.9846
12562.700      0.9930     0.9927
12562.800      0.9922     0.9964
12562.900      0.9920     0.9978
12563.000      0.9937     0.9983
12563.100      0.9979     0.9984
12563.200      1.0043     0.9985
12563.300      1.0097     0.9986
12563.400      1.0108     0.9986
12563.500      1.0091     0.9986
12563.600      1.0044     0.9986
12563.700      0.9998     0.9986
12563.800      1.0019     0.9986
12563.900      1.0039     0.9985
12564.000      1.0053     0.9984
12564.100      1.0058     0.9982
12564.200      1.0045     0.9980
12564.300      1.0027     0.9978
12564.400      1.0017     0.9977
12564.500      1.0020     0.9977
12564.600      1.0038     0.9979
12564.700      1.0062     0.9981
12564.800      1.0082     0.9983
12564.900      1.0090     0.9984
12565.000      1.0089     0.9985
12565.100      1.0080     0.9986
12565.200      1.0065     0.9986
12565.300      1.0045     0.9987
12565.400      1.0018     0.9987
12565.500      0.9976     0.9987
12565.600      0.9935     0.9987
12565.700      0.9938     0.9987
12565.800      0.9945     0.9987
12565.900      0.9934     0.9987
12566.000      0.9917     0.9987
12566.100      0.9902     0.9987
12566.200      0.9888     0.9987
12566.300      0.9863     0.9986
12566.400      0.9829     0.9986
12566.500      0.9798     0.9986
12566.600      0.9781     0.9986
12566.700      0.9787     0.9986
12566.800      0.9823     0.9986
12566.900      0.9857     0.9986
12567.000      0.9881     0.9986
12567.100      0.9897     0.9986
12567.200      0.9897     0.9986
12567.300      0.9897     0.9985
12567.400      0.9918     0.9985
12567.500      0.9940     0.9985
12567.600      0.9952     0.9985
12567.700      0.9956     0.9984
12567.800      0.9951     0.9984
12567.900      0.9945     0.9984
12568.000      0.9961     0.9983
12568.100      0.9996     0.9982
12568.200      1.0005     0.9980
12568.300      0.9981     0.9974
12568.400      0.9969     0.9958
12568.500      0.9988     0.9918
12568.600      1.0012     0.9835
12568.700      1.0038     0.9694
12568.800      1.0063     0.9508
12568.900      1.0050     0.9323
12569.000      1.0038     0.9210
12569.100      1.0031     0.9218
12569.200      1.0028     0.9339
12569.300      1.0029     0.9510
12569.400      1.0032     0.9652
12569.500      1.0037     0.9706
12569.600      1.0041     0.9654
12569.700      1.0045     0.9511
12569.800      1.0045     0.9319
12569.900      1.0030     0.9137
12570.000      1.0001     0.9025
12570.100      0.9976     0.9022
12570.200      0.9961     0.9130
12570.300      0.9948     0.9314
12570.400      0.9936     0.9519
12570.500      0.9923     0.9697
12570.600      0.9905     0.9824
12570.700      0.9886     0.9901
12570.800      0.9937     0.9942
12570.900      0.9993     0.9961
12571.000      1.0021     0.9970
12571.100      1.0028     0.9975
12571.200      1.0018     0.9977
12571.300      1.0003     0.9979
12571.400      0.9990     0.9980
12571.500      0.9977     0.9981
12571.600      0.9965     0.9982
12571.700      0.9953     0.9983
12571.800      0.9952     0.9983
12571.900      0.9973     0.9984
12572.000      0.9993     0.9984
12572.100      1.0012     0.9984
12572.200      1.0023     0.9984
12572.300      0.9985     0.9985
12572.400      0.9947     0.9985
12572.500      0.9929     0.9985
12572.600      0.9930     0.9985
12572.700      0.9971     0.9985
12572.800      1.0017     0.9985
12572.900      1.0005     0.9985
12573.000      0.9967     0.9985
12573.100      0.9935     0.9985
12573.200      0.9909     0.9986
12573.300      0.9888     0.9986
12573.400      0.9868     0.9986
12573.500      0.9848     0.9986
12573.600      0.9820     0.9986
12573.700      0.9781     0.9986
12573.800      0.9682     0.9986
12573.900      0.9478     0.9986
12574.000      0.8934     0.9986
12574.100      0.8390     0.9985
12574.200      0.7933     0.9985
12574.300      0.7605     0.9984
12574.400      0.7847     0.9982
12574.500      0.8262     0.9981
12574.600      0.8751     0.9981
12574.700      0.9248     0.9981
12574.800      0.9534     0.9982
12574.900      0.9636     0.9983
12575.000      0.9691     0.9984
12575.100      0.9730     0.9985
12575.200      0.9755     0.9985
12575.300      0.9774     0.9986
12575.400      0.9781     0.9985
12575.500      0.9779     0.9985
12575.600      0.9778     0.9984
12575.700      0.9778     0.9983
12575.800      0.9782     0.9983
12575.900      0.9835     0.9982
12576.000      0.9888     0.9982
12576.100      0.9917     0.9983
12576.200      0.9927     0.9983
12576.300      0.9916     0.9983
12576.400      0.9902     0.9984
12576.500      0.9896     0.9984
12576.600      0.9900     0.9984
12576.700      0.9916     0.9985
12576.800      0.9937     0.9985
12576.900      0.9961     0.9986
12577.000      0.9986     0.9986
12577.100      1.0007     0.9986
12577.200      1.0011     0.9986
12577.300      1.0008     0.9986
12577.400      1.0002     0.9986
12577.500      0.9990     0.9986
12577.600      0.9971     0.9986
12577.700      0.9951     0.9986
12577.800      0.9949     0.9986
12577.900      0.9955     0.9986
12578.000      0.9963     0.9985
12578.100      0.9976     0.9985
12578.200      1.0000     0.9985
12578.300      1.0028     0.9984
12578.400      1.0053     0.9983
12578.500      1.0068     0.9981
12578.600      1.0070     0.9979
12578.700      1.0061     0.9978
12578.800      1.0057     0.9978
12578.900      1.0066     0.9980
12579.000      1.0075     0.9982
12579.100      1.0073     0.9983
12579.200      1.0062     0.9984
12579.300      1.0029     0.9985
12579.400      0.9995     0.9985
12579.500      0.9990     0.9985
12579.600      0.9997     0.9985
12579.700      1.0013     0.9984
12579.800      1.0030     0.9984
12579.900      1.0043     0.9984
12580.000      1.0054     0.9984
12580.100      1.0067     0.9984
12580.200      1.0080     0.9984
12580.300      1.0080     0.9983
12580.400      1.0054     0.9982
12580.500      1.0022     0.9978
12580.600      0.9987     0.9972
12580.700      0.9952     0.9961
12580.800      0.9920     0.9944
12580.900      0.9894     0.9917
12581.000      0.9885     0.9872
12581.100      0.9891     0.9788
12581.200      0.9920     0.9640
12581.300      0.9952     0.9422
12581.400      0.9972     0.9174
12581.500      0.9979     0.8980
12581.600      0.9969     0.8924
12581.700      0.9953     0.9033
12581.800      0.9951     0.9261
12581.900      0.9968     0.9519
12582.000      0.9993     0.9730
12582.100      1.0022     0.9865
12582.200      1.0044     0.9935
12582.300      1.0042     0.9965
12582.400      1.0033     0.9976
12582.500      1.0022     0.9980
12582.600      1.0010     0.9982
12582.700      1.0000     0.9983
12582.800      0.9993     0.9983
12582.900      1.0008     0.9983
12583.000      1.0026     0.9984
12583.100      1.0036     0.9984
12583.200      1.0040     0.9984
12583.300      1.0038     0.9984
12583.400      1.0032     0.9983
12583.500      1.0022     0.9981
12583.600      1.0011     0.9977
12583.700      1.0003     0.9971
12583.800      1.0004     0.9966
12583.900      1.0011     0.9962
12584.000      1.0023     0.9964
12584.100      1.0030     0.9968
12584.200      1.0013     0.9974
12584.300      0.9986     0.9979
12584.400      0.9951     0.9982
12584.500      0.9915     0.9984
12584.600      0.9922     0.9984
12584.700      0.9946     0.9984
12584.800      0.9981     0.9984
12584.900      1.0017     0.9984
12585.000      1.0018     0.9984
12585.100      1.0002     0.9984
12585.200      0.9991     0.9984
12585.300      0.9987     0.9984
12585.400      0.9985     0.9984
12585.500      0.9983     0.9985
12585.600      0.9978     0.9985
12585.700      0.9964     0.9985
12585.800      0.9952     0.9985
12585.900      0.9948     0.9985
12586.000      0.9942     0.9985
12586.100      0.9901     0.9985
12586.200      0.9859     0.9984
12586.300      0.9820     0.9984
12586.400      0.9786     0.9984
12586.500      0.9792     0.9984
12586.600      0.9819     0.9984
12586.700      0.9859     0.9984
12586.800      0.9900     0.9984
12586.900      0.9935     0.9984
12587.000      0.9957     0.9984
12587.100      0.9961     0.9984
12587.200      0.9950     0.9984
12587.300      0.9947     0.9984
12587.400      0.9959     0.9984
12587.500      0.9969     0.9984
12587.600      0.9969     0.9984
12587.700      0.9970     0.9984
12587.800      0.9975     0.9984
12587.900      0.9983     0.9984
12588.000      0.9998     0.9984
12588.100      1.0014     0.9984
12588.200      1.0021     0.9984
12588.300      1.0021     0.9984
12588.400      1.0007     0.9984
12588.500      0.9989     0.9984
12588.600      0.9986     0.9984
12588.700      0.9992     0.9984
12588.800      0.9990     0.9984
12588.900      0.9976     0.9983
12589.000      0.9963     0.9983
12589.100      0.9958     0.9982
12589.200      0.9966     0.9982
12589.300      1.0000     0.9982
12589.400      1.0029     0.9983
12589.500      0.9979     0.9983
12589.600      0.9917     0.9984
12589.700      0.9846     0.9984
12589.800      0.9776     0.9984
12589.900      0.9716     0.9984
12590.000      0.9675     0.9984
12590.100      0.9711     0.9984
12590.200      0.9776     0.9984
12590.300      0.9819     0.9984
12590.400      0.9788     0.9984
12590.500      0.9518     0.9983
12590.600      0.9001     0.9982
12590.700      0.8450     0.9981
12590.800      0.7889     0.9978
12590.900      0.7441     0.9974
12591.000      0.7591     0.9971
12591.100      0.8001     0.9968
12591.200      0.8635     0.9968
12591.300      0.9270     0.9970
12591.400      0.9642     0.9974
12591.500      0.9861     0.9978
12591.600      0.9910     0.9981
12591.700      0.9919     0.9982
12591.800      0.9917     0.9983
12591.900      0.9900     0.9984
12592.000      0.9834     0.9984
12592.100      0.9743     0.9984
12592.200      0.9671     0.9984
12592.300      0.9654     0.9984
12592.400      0.9704     0.9984
12592.500      0.9812     0.9984
12592.600      0.9914     0.9984
12592.700      0.9973     0.9984
12592.800      0.9996     0.9984
12592.900      0.9963     0.9984
12593.000      0.9931     0.9984
12593.100      0.9921     0.9984
12593.200      0.9924     0.9984
12593.300      0.9941     0.9983
12593.400      0.9960     0.9983
12593.500      0.9960     0.9983
12593.600      0.9950     0.9983
12593.700      0.9934     0.9983
12593.800      0.9917     0.9982
12593.900      0.9906     0.9982
12594.000      0.9906     0.9982
12594.100      0.9910     0.9982
12594.200      0.9916     0.9982
12594.300      0.9922     0.9983
12594.400      0.9921     0.9983
12594.500      0.9917     0.9983
12594.600      0.9908     0.9983
12594.700      0.9898     0.9983
12594.800      0.9898     0.9983
12594.900      0.9902     0.9983
12595.000      0.9911     0.9983
12595.100      0.9922     0.9983
12595.200      0.9897     0.9983
12595.300      0.9840     0.9983
12595.400      0.9756     0.9983
12595.500      0.9664     0.9983
12595.600      0.9595     0.9983
12595.700      0.9581     0.9983
12595.800      0.9621     0.9983
12595.900      0.9701     0.9982
12596.000      0.9780     0.9982
12596.100      0.9850     0.9981
12596.200      0.9907     0.9981
12596.300      0.9927     0.9981
12596.400      0.9934     0.9982
12596.500      0.9934     0.9982
12596.600      0.9928     0.9982
12596.700      0.9913     0.9982
12596.800      0.9898     0.9982
12596.900      0.9889     0.9981
12597.000      0.9892     0.9980
12597.100      0.9915     0.9976
12597.200      0.9946     0.9972
12597.300      0.9953     0.9966
12597.400      0.9937     0.9962
12597.500      0.9932     0.9960
12597.600      0.9948     0.9962
12597.700      0.9964     0.9967
12597.800      0.9972     0.9972
12597.900      0.9952     0.9976
12598.000      0.9796     0.9979
12598.100      0.9640     0.9980
12598.200      0.9512     0.9981
12598.300      0.9420     0.9982
12598.400      0.9469     0.9982
12598.500      0.9551     0.9982
12598.600      0.9647     0.9982
12598.700      0.9745     0.9982
12598.800      0.9819     0.9982
12598.900      0.9869     0.9982
12599.000      0.9907     0.9982
12599.100      0.9937     0.9982
12599.200      0.9949     0.9982
12599.300      0.9947     0.9982
12599.400      0.9939     0.9982
12599.500      0.9930     0.9982
12599.600      0.9922     0.9982
12599.700      0.9936     0.9982
12599.800      0.9959     0.9981
12599.900      0.9990     0.9981
12600.000      1.0021     0.9981
12600.100      1.0032     0.9981
12600.200      1.0032     0.9980
12600.300      1.0020     0.9980
12600.400      1.0006     0.9979
12600.500      0.9995     0.9979
12600.600      0.9989     0.9977
12600.700      0.9995     0.9972
12600.800      1.0008     0.9957
12600.900      1.0012     0.9919
12601.000      1.0001     0.9834
12601.100      0.9983     0.9678
12601.200      0.9962     0.9451
12601.300      0.9914     0.9194
12601.400      0.9759     0.8992
12601.500      0.9604     0.8927
12601.600      0.9450     0.9030
12601.700      0.9301     0.9254
12601.800      0.9339     0.9510
12601.900      0.9456     0.9723
12602.000      0.9632     0.9860
12602.100      0.9815     0.9931
12602.200      0.9926     0.9962
12602.300      0.9973     0.9973
12602.400      0.9988     0.9977
12602.500      0.9995     0.9979
12602.600      1.0005     0.9979
12602.700      1.0020     0.9980
12602.800      1.0031     0.9980
12602.900      1.0026     0.9980
12603.000      1.0014     0.9980
12603.100      0.9994     0.9979
12603.200      0.9976     0.9978
12603.300      0.9983     0.9978
12603.400      0.9989     0.9978
12603.500      0.9986     0.9978
12603.600      0.9977     0.9979
12603.700      0.9964     0.9980
12603.800      0.9950     0.9981
12603.900      0.9942     0.9981
12604.000      0.9937     0.9981
12604.100      0.9911     0.9981
12604.200      0.9833     0.9981
12604.300      0.9669     0.9981
12604.400      0.9438     0.9981
12604.500      0.9222     0.9981
12604.600      0.9095     0.9981
12604.700      0.9091     0.9981
12604.800      0.9304     0.9981
12604.900      0.9518     0.9981
12605.000      0.9713     0.9981
12605.100      0.9883     0.9981
12605.200      0.9904     0.9981
12605.300      0.9908     0.9981
12605.400      0.9907     0.9981
12605.500      0.9907     0.9981
12605.600      0.9908     0.9981
12605.700      0.9909     0.9981
12605.800      0.9900     0.9981
12605.900      0.9882     0.9981
12606.000      0.9869     0.9981
12606.100      0.9870     0.9981
12606.200      0.9886     0.9981
12606.300      0.9916     0.9981
12606.400      0.9938     0.9981
12606.500      0.9920     0.9981
12606.600      0.9900     0.9981
12606.700      0.9878     0.9981
12606.800      0.9855     0.9981
12606.900      0.9833     0.9981
12607.000      0.9810     0.9981
12607.100      0.9791     0.9981
12607.200      0.9772     0.9981
12607.300      0.9706     0.9981
12607.400      0.9530     0.9981
12607.500      0.9060     0.9981
12607.600      0.8401     0.9981
12607.700      0.7716     0.9981
12607.800      0.7025     0.9981
12607.900      0.6570     0.9981
12608.000      0.6821     0.9981
12608.100      0.7402     0.9980
12608.200      0.8204     0.9980
12608.300      0.8985     0.9980
12608.400      0.9412     0.9980
12608.500      0.9685     0.9980
12608.600      0.9815     0.9980
12608.700      0.9884     0.9980
12608.800      0.9898     0.9980
12608.900      0.9904     0.9980
12609.000      0.9910     0.9980
12609.100      0.9913     0.9980
12609.200      0.9911     0.9980
12609.300      0.9906     0.9980
12609.400      0.9910     0.9980
12609.500      0.9926     0.9980
12609.600      0.9939     0.9980
12609.700      0.9944     0.9980
12609.800      0.9948     0.9980
12609.900      0.9952     0.9980
12610.000      0.9956     0.9980
12610.100      0.9960     0.9980
12610.200      0.9964     0.9980
12610.300      0.9934     0.9980
12610.400      0.9902     0.9980
12610.500      0.9915     0.9980
12610.600      0.9936     0.9980
12610.700      0.9928     0.9979
12610.800      0.9855     0.9979
12610.900      0.9590     0.9979
12611.000      0.9223     0.9979
12611.100      0.8872     0.9979
12611.200      0.8599     0.9979
12611.300      0.8536     0.9979
12611.400      0.8791     0.9979
12611.500      0.9111     0.9979
12611.600      0.9458     0.9979
12611.700      0.9793     0.9979
12611.800      0.9954     0.9978
12611.900      1.0034     0.9978
12612.000      1.0019     0.9978
12612.100      1.0002     0.9978
12612.200      0.9986     0.9977
12612.300      0.9972     0.9977
12612.400      0.9984     0.9977
12612.500      1.0004     0.9976
12612.600      1.0021     0.9976
12612.700      1.0033     0.9975
12612.800      1.0029     0.9974
12612.900      1.0011     0.9971
12613.000      0.9993     0.9967
12613.100      0.9981     0.9959
12613.200      0.9980     0.9947
12613.300      1.0006     0.9930
12613.400      1.0032     0.9898
12613.500      1.0038     0.9830
12613.600      1.0027     0.9689
12613.700      0.9969     0.9441
12613.800      0.9910     0.9091
12613.900      0.9892     0.8707
12614.000      0.9881     0.8405
12614.100      0.9851     0.8294
12614.200      0.9772     0.8419
12614.300      0.9485     0.8731
12614.400      0.9089     0.9119
12614.500      0.8722     0.9468
12614.600      0.8471     0.9716
12614.700      0.8493     0.9858
12614.800      0.8834     0.9926
12614.900      0.9192     0.9954
12615.000      0.9556     0.9965
12615.100      0.9886     0.9969
12615.200      0.9948     0.9971
12615.300      0.9966     0.9973
12615.400      0.9955     0.9973
12615.500      0.9944     0.9974
12615.600      0.9977     0.9973
12615.700      1.0016     0.9972
12615.800      1.0031     0.9971
12615.900      1.0026     0.9970
12616.000      1.0003     0.9971
12616.100      0.9977     0.9973
12616.200      0.9963     0.9975
12616.300      0.9969     0.9976
12616.400      0.9985     0.9977
12616.500      1.0005     0.9977
12616.600      1.0020     0.9977
12616.700      1.0018     0.9978
12616.800      1.0009     0.9978
12616.900      0.9996     0.9978
12617.000      0.9984     0.9978
12617.100      1.0011     0.9978
12617.200      1.0038     0.9978
12617.300      0.9996     0.9978
12617.400      0.9944     0.9978
12617.500      0.9891     0.9978
12617.600      0.9838     0.9978
12617.700      0.9678     0.9978
12617.800      0.9370     0.9978
12617.900      0.8921     0.9978
12618.000      0.8413     0.9978
12618.100      0.8009     0.9978
12618.200      0.7932     0.9978
12618.300      0.8147     0.9978
12618.400      0.8618     0.9978
12618.500      0.9080     0.9978
12618.600      0.9421     0.9978
12618.700      0.9657     0.9978
12618.800      0.9668     0.9977
12618.900      0.9679     0.9977
12619.000      0.9690     0.9976
12619.100      0.9702     0.9975
12619.200      0.9703     0.9974
12619.300      0.9698     0.9974
12619.400      0.9689     0.9974
12619.500      0.9681     0.9974
12619.600      0.9678     0.9976
12619.700      0.9691     0.9976
12619.800      0.9726     0.9977
12619.900      0.9778     0.9977
12620.000      0.9820     0.9978
12620.100      0.9832     0.9978
12620.200      0.9845     0.9978
12620.300      0.9857     0.9977
12620.400      0.9870     0.9977
12620.500      0.9892     0.9977
12620.600      0.9914     0.9977
12620.700      0.9934     0.9977
12620.800      0.9952     0.9977
12620.900      0.9937     0.9977
12621.000      0.9855     0.9977
12621.100      0.9544     0.9977
12621.200      0.9111     0.9977
12621.300      0.8649     0.9976
12621.400      0.8182     0.9976
12621.500      0.7901     0.9975
12621.600      0.8042     0.9975
12621.700      0.8431     0.9975
12621.800      0.8968     0.9976
12621.900      0.9474     0.9977
12622.000      0.9750     0.9977
12622.100      0.9902     0.9977
12622.200      0.9912     0.9977
12622.300      0.9922     0.9977
12622.400      0.9934     0.9977
12622.500      0.9946     0.9977
12622.600      0.9964     0.9977
12622.700      0.9984     0.9977
12622.800      1.0002     0.9977
12622.900      1.0015     0.9977
12623.000      1.0011     0.9977
12623.100      0.9996     0.9977
12623.200      0.9988     0.9977
12623.300      0.9993     0.9977
12623.400      1.0002     0.9977
12623.500      1.0013     0.9977
12623.600      1.0017     0.9977
12623.700      0.9988     0.9977
12623.800      0.9960     0.9977
12623.900      0.9951     0.9977
12624.000      0.9942     0.9977
12624.100      0.9929     0.9977
12624.200      0.9910     0.9977
12624.300      0.9878     0.9977
12624.400      0.9825     0.9977
12624.500      0.9754     0.9977
12624.600      0.9634     0.9977
12624.700      0.9344     0.9977
12624.800      0.8786     0.9976
12624.900      0.7945     0.9976
12625.000      0.6949     0.9976
12625.100      0.6050     0.9976
12625.200      0.5631     0.9976
12625.300      0.5747     0.9976
12625.400      0.6591     0.9976
12625.500      0.7436     0.9976
12625.600      0.8275     0.9976
12625.700      0.9104     0.9976
12625.800      0.9510     0.9976
12625.900      0.9717     0.9976
12626.000      0.9727     0.9976
12626.100      0.9717     0.9976
12626.200      0.9712     0.9976
12626.300      0.9722     0.9976
12626.400      0.9765     0.9976
12626.500      0.9825     0.9976
12626.600      0.9869     0.9976
12626.700      0.9891     0.9976
12626.800      0.9913     0.9975
12626.900      0.9935     0.9975
12627.000      0.9955     0.9975
12627.100      0.9961     0.9975
12627.200      0.9954     0.9975
12627.300      0.9925     0.9975
12627.400      0.9897     0.9975
12627.500      0.9895     0.9974
12627.600      0.9894     0.9973
12627.700      0.9888     0.9973
12627.800      0.9875     0.9974
12627.900      0.9857     0.9974
12628.000      0.9826     0.9975
12628.100      0.9750     0.9975
12628.200      0.9565     0.9975
12628.300      0.9131     0.9975
12628.400      0.8505     0.9975
12628.500      0.7901     0.9975
12628.600      0.7452     0.9975
12628.700      0.7301     0.9975
12628.800      0.7753     0.9975
12628.900      0.8283     0.9975
12629.000      0.8852     0.9975
12629.100      0.9422     0.9975
12629.200      0.9676     0.9975
12629.300      0.9819     0.9975
12629.400      0.9883     0.9975
12629.500      0.9907     0.9975
12629.600      0.9887     0.9975
12629.700      0.9860     0.9975
12629.800      0.9864     0.9975
12629.900      0.9889     0.9975
12630.000      0.9910     0.9975
12630.100      0.9921     0.9975
12630.200      0.9914     0.9975
12630.300      0.9893     0.9975
12630.400      0.9881     0.9975
12630.500      0.9901     0.9975
12630.600      0.9919     0.9975
12630.700      0.9923     0.9975
12630.800      0.9921     0.9975
12630.900      0.9914     0.9975
12631.000      0.9906     0.9975
12631.100      0.9902     0.9974
12631.200      0.9899     0.9974
12631.300      0.9868     0.9974
12631.400      0.9827     0.9974
12631.500      0.9818     0.9974
12631.600      0.9829     0.9974
12631.700      0.9839     0.9974
12631.800      0.9842     0.9974
12631.900      0.9836     0.9974
12632.000      0.9814     0.9974
12632.100      0.9786     0.9974
12632.200      0.9752     0.9974
12632.300      0.9680     0.9974
12632.400      0.9307     0.9974
12632.500      0.8785     0.9974
12632.600      0.8087     0.9974
12632.700      0.7387     0.9974
12632.800      0.7212     0.9974
12632.900      0.7415     0.9974
12633.000      0.8022     0.9974
12633.100      0.8700     0.9974
12633.200      0.9255     0.9974
12633.300      0.9616     0.9973
12633.400      0.9788     0.9973
12633.500      0.9857     0.9973
12633.600      0.9903     0.9973
12633.700      0.9940     0.9973
12633.800      0.9960     0.9973
12633.900      0.9963     0.9973
12634.000      0.9957     0.9974
12634.100      0.9945     0.9974
12634.200      0.9933     0.9973
12634.300      0.9929     0.9973
12634.400      0.9932     0.9973
12634.500      0.9949     0.9973
12634.600      0.9968     0.9973
12634.700      0.9964     0.9973
12634.800      0.9943     0.9973
12634.900      0.9912     0.9973
12635.000      0.9879     0.9973
12635.100      0.9845     0.9973
12635.200      0.9811     0.9973
12635.300      0.9779     0.9973
12635.400      0.9749     0.9973
12635.500      0.9705     0.9973
12635.600      0.9542     0.9973
12635.700      0.9198     0.9973
12635.800      0.8438     0.9973
12635.900      0.7678     0.9973
12636.000      0.7118     0.9973
12636.100      0.6792     0.9973
12636.200      0.7230     0.9973
12636.300      0.7827     0.9973
12636.400      0.8489     0.9973
12636.500      0.9155     0.9973
12636.600      0.9584     0.9973
12636.700      0.9775     0.9973
12636.800      0.9835     0.9973
12636.900      0.9848     0.9973
12637.000      0.9844     0.9973
12637.100      0.9836     0.9973
12637.200      0.9832     0.9972
12637.300      0.9841     0.9972
12637.400      0.9848     0.9972
12637.500      0.9850     0.9972
12637.600      0.9852     0.9972
12637.700      0.9873     0.9972
12637.800      0.9894     0.9972
12637.900      0.9896     0.9972
12638.000      0.9896     0.9972
12638.100      0.9894     0.9971
12638.200      0.9892     0.9970
12638.300      0.9899     0.9966
12638.400      0.9912     0.9959
12638.500      0.9901     0.9949
12638.600      0.9868     0.9940
12638.700      0.9858     0.9936
12638.800      0.9879     0.9940
12638.900      0.9898     0.9949
12639.000      0.9903     0.9959
12639.100      0.9898     0.9966
12639.200      0.9883     0.9969
12639.300      0.9868     0.9971
12639.400      0.9876     0.9971
12639.500      0.9883     0.9972
12639.600      0.9870     0.9972
12639.700      0.9845     0.9972
12639.800      0.9816     0.9972
12639.900      0.9773     0.9971
12640.000      0.9644     0.9971
12640.100      0.9357     0.9971
12640.200      0.8784     0.9971
12640.300      0.8056     0.9971
12640.400      0.7388     0.9971
12640.500      0.6976     0.9971
12640.600      0.7001     0.9971
12640.700      0.7607     0.9971
12640.800      0.8240     0.9971
12640.900      0.8884     0.9971
12641.000      0.9514     0.9971
12641.100      0.9742     0.9971
12641.200      0.9857     0.9971
12641.300      0.9875     0.9971
12641.400      0.9883     0.9971
12641.500      0.9885     0.9971
12641.600      0.9887     0.9971
12641.700      0.9889     0.9971
12641.800      0.9891     0.9971
12641.900      0.9881     0.9971
12642.000      0.9840     0.9971
12642.100      0.9776     0.9971
12642.200      0.9662     0.9971
12642.300      0.9357     0.9971
12642.400      0.8745     0.9970
12642.500      0.8137     0.9970
12642.600      0.7608     0.9970
12642.700      0.7213     0.9970
12642.800      0.7500     0.9970
12642.900      0.7950     0.9970
12643.000      0.8532     0.9970
12643.100      0.9117     0.9970
12643.200      0.9448     0.9970
12643.300      0.9458     0.9970
12643.400      0.8945     0.9970
12643.500      0.8257     0.9970
12643.600      0.7549     0.9970
12643.700      0.6840     0.9970
12643.800      0.6487     0.9970
12643.900      0.6814     0.9970
12644.000      0.7488     0.9970
12644.100      0.8341     0.9970
12644.200      0.9128     0.9970
12644.300      0.9539     0.9970
12644.400      0.9776     0.9970
12644.500      0.9862     0.9970
12644.600      0.9912     0.9969
12644.700      0.9941     0.9969
12644.800      0.9958     0.9969
12644.900      0.9966     0.9969
12645.000      0.9967     0.9969
12645.100      0.9959     0.9969
12645.200      0.9948     0.9969
12645.300      0.9955     0.9969
12645.400      0.9974     0.9969
12645.500      0.9993     0.9969
12645.600      1.0007     0.9969
12645.700      1.0013     0.9969
12645.800      1.0007     0.9969
12645.900      1.0002     0.9969
12646.000      1.0000     0.9969
12646.100      1.0000     0.9969
12646.200      0.9999     0.9969
12646.300      0.9999     0.9969
12646.400      0.9990     0.9969
12646.500      0.9980     0.9969
12646.600      0.9987     0.9969
12646.700      0.9997     0.9969
12646.800      1.0005     0.9969
12646.900      1.0009     0.9969
12647.000      1.0002     0.9969
12647.100      0.9989     0.9968
12647.200      0.9982     0.9968
12647.300      0.9979     0.9968
12647.400      0.9973     0.9968
12647.500      0.9953     0.9968
12647.600      0.9927     0.9968
12647.700      0.9897     0.9968
12647.800      0.9861     0.9968
12647.900      0.9816     0.9968
12648.000      0.9753     0.9968
12648.100      0.9452     0.9968
12648.200      0.8967     0.9967
12648.300      0.8187     0.9966
12648.400      0.7370     0.9963
12648.500      0.6918     0.9958
12648.600      0.6928     0.9954
12648.700      0.7499     0.9951
12648.800      0.8274     0.9952
12648.900      0.8975     0.9955
12649.000      0.9481     0.9960
12649.100      0.9781     0.9964
12649.200      0.9896     0.9966
12649.300      0.9949     0.9966
12649.400      0.9975     0.9966
12649.500      0.9995     0.9966
12649.600      1.0013     0.9965
12649.700      1.0025     0.9965
12649.800      0.9993     0.9965
12649.900      0.9960     0.9966
12650.000      0.9939     0.9966
12650.100      0.9933     0.9966
12650.200      0.9948     0.9966
12650.300      0.9969     0.9966
12650.400      0.9987     0.9966
12650.500      0.9998     0.9966
12650.600      0.9998     0.9966
12650.700      0.9979     0.9966
12650.800      0.9942     0.9966
12650.900      0.9891     0.9965
12651.000      0.9838     0.9965
12651.100      0.9784     0.9965
12651.200      0.9710     0.9964
12651.300      0.9407     0.9962
12651.400      0.8915     0.9960
12651.500      0.8015     0.9957
12651.600      0.7110     0.9951
12651.700      0.6515     0.9945
12651.800      0.6303     0.9939
12651.900      0.6892     0.9935
12652.000      0.7684     0.9934
12652.100      0.8443     0.9937
12652.200      0.9110     0.9942
12652.300      0.9545     0.9948
12652.400      0.9734     0.9953
12652.500      0.9820     0.9956
12652.600      0.9869     0.9959
12652.700      0.9915     0.9961
12652.800      0.9961     0.9962
12652.900      1.0004     0.9963
12653.000      1.0039     0.9964
12653.100      1.0063     0.9964
12653.200      1.0045     0.9965
12653.300      1.0026     0.9965
12653.400      1.0030     0.9965
12653.500      1.0039     0.9965
12653.600      1.0049     0.9965
12653.700      1.0058     0.9965
12653.800      1.0069     0.9965
12653.900      1.0079     0.9965
12654.000      1.0085     0.9965
12654.100      1.0080     0.9965
12654.200      1.0059     0.9965
12654.300      1.0023     0.9965
12654.400      0.9992     0.9965
12654.500      0.9982     0.9965
12654.600      0.9981     0.9965
12654.700      0.9987     0.9965
12654.800      0.9993     0.9965
12654.900      0.9975     0.9965
12655.000      0.9957     0.9965
12655.100      0.9957     0.9965
12655.200      0.9965     0.9964
12655.300      0.9978     0.9964
12655.400      0.9992     0.9964
12655.500      0.9981     0.9963
12655.600      0.9957     0.9963
12655.700      0.9935     0.9963
12655.800      0.9915     0.9963
12655.900      0.9899     0.9964
12656.000      0.9885     0.9964
12656.100      0.9865     0.9964
12656.200      0.9800     0.9964
12656.300      0.9673     0.9964
12656.400      0.9370     0.9964
12656.500      0.8904     0.9964
12656.600      0.8130     0.9964
12656.700      0.7357     0.9964
12656.800      0.7041     0.9964
12656.900      0.7114     0.9964
12657.000      0.7751     0.9964
12657.100      0.8486     0.9964
12657.200      0.9127     0.9964
12657.300      0.9601     0.9964
12657.400      0.9849     0.9963
12657.500      0.9951     0.9963
12657.600      1.0009     0.9963
12657.700      1.0049     0.9963
12657.800      1.0076     0.9963
12657.900      1.0096     0.9963
12658.000      1.0103     0.9963
12658.100      1.0093     0.9963
12658.200      1.0084     0.9963
12658.300      1.0093     0.9963
12658.400      1.0104     0.9963
12658.500      1.0116     0.9963
12658.600      1.0128     0.9963
12658.700      1.0109     0.9963
12658.800      1.0075     0.9963
12658.900      1.0035     0.9963
12659.000      0.9995     0.9963
12659.100      0.9964     0.9963
12659.200      0.9942     0.9963
12659.300      0.9908     0.9962
12659.400      0.9809     0.9962
12659.500      0.9601     0.9962
12659.600      0.9142     0.9962
12659.700      0.8453     0.9962
12659.800      0.7514     0.9962
12659.900      0.6594     0.9962
12660.000      0.6273     0.9962
12660.100      0.6304     0.9962
12660.200      0.6844     0.9962
12660.300      0.7409     0.9962
12660.400      0.7513     0.9962
12660.500      0.7499     0.9962
12660.600      0.7525     0.9962
12660.700      0.7650     0.9962
12660.800      0.8076     0.9961
12660.900      0.8693     0.9961
12661.000      0.9265     0.9961
12661.100      0.9691     0.9961
12661.200      0.9935     0.9961
12661.300      0.9989     0.9961
12661.400      1.0018     0.9961
12661.500      1.0038     0.9961
12661.600      1.0058     0.9960
12661.700      1.0089     0.9959
12661.800      1.0119     0.9957
12661.900      1.0123     0.9953
12662.000      1.0124     0.9950
12662.100      1.0138     0.9947
12662.200      1.0157     0.9947
12662.300      1.0179     0.9949
12662.400      1.0201     0.9952
12662.500      1.0210     0.9956
12662.600      1.0198     0.9958
12662.700      1.0168     0.9959
12662.800      1.0131     0.9960
12662.900      1.0104     0.9960
12663.000      1.0105     0.9960
12663.100      1.0120     0.9960
12663.200      1.0145     0.9960
12663.300      1.0166     0.9960
12663.400      1.0137     0.9960
12663.500      1.0109     0.9960
12663.600      1.0116     0.9960
12663.700      1.0125     0.9960
12663.800      1.0130     0.9960
12663.900      1.0128     0.9960
12664.000      1.0100     0.9960
12664.100      1.0062     0.9960
12664.200      1.0058     0.9960
12664.300      1.0077     0.9960
12664.400      1.0084     0.9959
12664.500      1.0062     0.9959
12664.600      1.0026     0.9959
12664.700      0.9976     0.9959
12664.800      0.9902     0.9959
12664.900      0.9769     0.9959
12665.000      0.9525     0.9959
12665.100      0.8893     0.9959
12665.200      0.8261     0.9959
12665.300      0.7765     0.9959
12665.400      0.7452     0.9959
12665.500      0.7746     0.9959
12665.600      0.8228     0.9958
12665.700      0.8788     0.9958
12665.800      0.9355     0.9957
12665.900      0.9729     0.9955
12666.000      0.9884     0.9952
12666.100      0.9937     0.9948
12666.200      0.9949     0.9945
12666.300      0.9942     0.9944
12666.400      0.9928     0.9945
12666.500      0.9915     0.9948
12666.600      0.9910     0.9951
12666.700      0.9917     0.9951
12666.800      0.9965     0.9949
12666.900      1.0013     0.9944
12667.000      1.0017     0.9939
12667.100      1.0012     0.9936
12667.200      1.0003     0.9937
12667.300      0.9988     0.9942
12667.400      0.9953     0.9948
12667.500      0.9911     0.9953
12667.600      0.9882     0.9955
12667.700      0.9861     0.9957
12667.800      0.9836     0.9957
12667.900      0.9789     0.9957
12668.000      0.9652     0.9957
12668.100      0.9252     0.9957
12668.200      0.8599     0.9957
12668.300      0.7690     0.9957
12668.400      0.6810     0.9957
12668.500      0.6392     0.9957
12668.600      0.6357     0.9957
12668.700      0.7144     0.9957
12668.800      0.7941     0.9957
12668.900      0.8680     0.9956
12669.000      0.9322     0.9956
12669.100      0.9653     0.9956
12669.200      0.9808     0.9956
12669.300      0.9866     0.9956
12669.400      0.9904     0.9956
12669.500      0.9941     0.9956
12669.600      0.9978     0.9956
12669.700      1.0006     0.9956
12669.800      1.0004     0.9956
12669.900      0.9975     0.9955
12670.000      0.9921     0.9955
12670.100      0.9867     0.9955
12670.200      0.9821     0.9955
12670.300      0.9786     0.9955
12670.400      0.9828     0.9955
12670.500      0.9870     0.9955
12670.600      0.9911     0.9955
12670.700      0.9949     0.9955
12670.800      0.9949     0.9955
12670.900      0.9936     0.9955
12671.000      0.9939     0.9955
12671.100      0.9959     0.9955
12671.200      0.9989     0.9955
12671.300      1.0022     0.9955
12671.400      1.0045     0.9955
12671.500      1.0039     0.9955
12671.600      1.0018     0.9955
12671.700      0.9988     0.9955
12671.800      0.9959     0.9954
12671.900      0.9953     0.9954
12672.000      0.9963     0.9954
12672.100      0.9994     0.9954
12672.200      1.0026     0.9954
12672.300      1.0010     0.9954
12672.400      0.9988     0.9954
12672.500      0.9982     0.9954
12672.600      0.9988     0.9954
12672.700      1.0002     0.9954
12672.800      1.0017     0.9954
12672.900      1.0020     0.9954
12673.000      1.0012     0.9954
12673.100      1.0009     0.9953
12673.200      1.0015     0.9953
12673.300      1.0016     0.9953
12673.400      1.0000     0.9953
12673.500      0.9984     0.9953
12673.600      0.9968     0.9953
12673.700      0.9951     0.9953
12673.800      0.9883     0.9953
12673.900      0.9755     0.9953
12674.000      0.9408     0.9953
12674.100      0.9037     0.9953
12674.200      0.8736     0.9953
12674.300      0.8562     0.9953
12674.400      0.8691     0.9952
12674.500      0.8960     0.9952
12674.600      0.9244     0.9952
12674.700      0.9531     0.9952
12674.800      0.9738     0.9952
12674.900      0.9800     0.9952
12675.000      0.9831     0.9952
12675.100      0.9850     0.9952
12675.200      0.9873     0.9952
12675.300      0.9911     0.9951
12675.400      0.9948     0.9950
12675.500      0.9922     0.9949
12675.600      0.9893     0.9948
12675.700      0.9861     0.9947
12675.800      0.9830     0.9946
12675.900      0.9854     0.9947
12676.000      0.9893     0.9948
12676.100      0.9927     0.9949
12676.200      0.9947     0.9950
12676.300      0.9929     0.9951
12676.400      0.9886     0.9951
12676.500      0.9843     0.9951
12676.600      0.9801     0.9950
12676.700      0.9741     0.9950
12676.800      0.9558     0.9950
12676.900      0.9191     0.9950
12677.000      0.8455     0.9950
12677.100      0.7718     0.9950
12677.200      0.7051     0.9950
12677.300      0.6488     0.9950
12677.400      0.6725     0.9949
12677.500      0.7270     0.9949
12677.600      0.8055     0.9949
12677.700      0.8864     0.9949
12677.800      0.9411     0.9948
12677.900      0.9701     0.9948
12678.000      0.9843     0.9946
12678.100      0.9915     0.9941
12678.200      0.9935     0.9930
12678.300      0.9935     0.9908
12678.400      0.9931     0.9872
12678.500      0.9926     0.9824
12678.600      0.9922     0.9775
12678.700      0.9928     0.9741
12678.800      0.9942     0.9731
12678.900      0.9969     0.9740
12679.000      0.9995     0.9758
12679.100      0.9993     0.9778
12679.200      0.9988     0.9801
12679.300      0.9981     0.9831
12679.400      0.9974     0.9863
12679.500      0.9979     0.9889
12679.600      0.9991     0.9906
12679.700      0.9994     0.9917
12679.800      0.9991     0.9924
12679.900      0.9988     0.9930
12680.000      0.9987     0.9936
12680.100      0.9983     0.9940
12680.200      0.9974     0.9943
12680.300      0.9966     0.9944
12680.400      0.9961     0.9945
12680.500      0.9962     0.9946
12680.600      0.9991     0.9946
12680.700      1.0020     0.9946
12680.800      1.0028     0.9946
12680.900      1.0024     0.9946
12681.000      1.0008     0.9946
12681.100      0.9992     0.9946
12681.200      0.9980     0.9946
12681.300      0.9971     0.9946
12681.400      0.9954     0.9946
12681.500      0.9930     0.9946
12681.600      0.9928     0.9946
12681.700      0.9954     0.9946
12681.800      0.9977     0.9946
12681.900      0.9992     0.9946
12682.000      0.9998     0.9945
12682.100      0.9992     0.9945
12682.200      0.9968     0.9945
12682.300      0.9906     0.9945
12682.400      0.9844     0.9945
12682.500      0.9802     0.9944
12682.600      0.9778     0.9944
12682.700      0.9787     0.9942
12682.800      0.9801     0.9940
12682.900      0.9701     0.9938
12683.000      0.9414     0.9936
12683.100      0.8829     0.9935
12683.200      0.8112     0.9936
12683.300      0.7456     0.9938
12683.400      0.7018     0.9940
12683.500      0.6918     0.9941
12683.600      0.7169     0.9942
12683.700      0.7375     0.9942
12683.800      0.7322     0.9942
12683.900      0.7134     0.9942
12684.000      0.6813     0.9942
12684.100      0.6491     0.9942
12684.200      0.6867     0.9943
12684.300      0.7350     0.9943
12684.400      0.7897     0.9943
12684.500      0.8446     0.9943
12684.600      0.8323     0.9943
12684.700      0.7844     0.9943
12684.800      0.7271     0.9943
12684.900      0.6684     0.9943
12685.000      0.6486     0.9943
12685.100      0.6902     0.9942
12685.200      0.7564     0.9942
12685.300      0.8329     0.9942
12685.400      0.9016     0.9942
12685.500      0.9225     0.9942
12685.600      0.9072     0.9942
12685.700      0.8442     0.9942
12685.800      0.7767     0.9942
12685.900      0.7064     0.9942
12686.000      0.6360     0.9942
12686.100      0.6306     0.9942
12686.200      0.6516     0.9942
12686.300      0.6870     0.9942
12686.400      0.7241     0.9941
12686.500      0.7154     0.9941
12686.600      0.6769     0.9941
12686.700      0.6413     0.9941
12686.800      0.6133     0.9941
12686.900      0.5937     0.9941
12687.000      0.5803     0.9941
12687.100      0.5549     0.9941
12687.200      0.4887     0.9941
12687.300      0.4272     0.9941
12687.400      0.4250     0.9941
12687.500      0.4610     0.9941
12687.600      0.5569     0.9940
12687.700      0.6536     0.9940
12687.800      0.6834     0.9940
12687.900      0.6721     0.9940
12688.000      0.6233     0.9940
12688.100      0.5682     0.9940
12688.200      0.5674     0.9940
12688.300      0.6148     0.9940
12688.400      0.6793     0.9939
12688.500      0.7482     0.9939
12688.600      0.7973     0.9939
12688.700      0.7876     0.9938
12688.800      0.7358     0.9938
12688.900      0.6508     0.9938
12689.000      0.5667     0.9939
12689.100      0.5007     0.9939
12689.200      0.4569     0.9939
12689.300      0.5096     0.9939
12689.400      0.5913     0.9938
12689.500      0.6997     0.9938
12689.600      0.8096     0.9938
12689.700      0.8847     0.9938
12689.800      0.9269     0.9938
12689.900      0.9486     0.9938
12690.000      0.9497     0.9938
12690.100      0.9260     0.9937
12690.200      0.8769     0.9937
12690.300      0.7970     0.9937
12690.400      0.6982     0.9937
12690.500      0.6072     0.9937
12690.600      0.5616     0.9937
12690.700      0.5573     0.9937
12690.800      0.6099     0.9937
12690.900      0.6728     0.9937
12691.000      0.7422     0.9937
12691.100      0.8116     0.9937
12691.200      0.8656     0.9937
12691.300      0.9065     0.9936
12691.400      0.9364     0.9936
12691.500      0.9537     0.9936
12691.600      0.9589     0.9936
12691.700      0.9471     0.9936
12691.800      0.9021     0.9936
12691.900      0.8374     0.9936
12692.000      0.7718     0.9936
12692.100      0.7059     0.9935
12692.200      0.6602     0.9935
12692.300      0.6853     0.9935
12692.400      0.7331     0.9935
12692.500      0.7953     0.9935
12692.600      0.8571     0.9935
12692.700      0.8822     0.9934
12692.800      0.8932     0.9934
12692.900      0.8891     0.9934
12693.000      0.8840     0.9933
12693.100      0.8811     0.9932
12693.200      0.8824     0.9930
12693.300      0.8984     0.9927
12693.400      0.9208     0.9925
12693.500      0.9376     0.9925
12693.600      0.9373     0.9927
12693.700      0.9058     0.9929
12693.800      0.8461     0.9931
12693.900      0.7879     0.9932
12694.000      0.7425     0.9933
12694.100      0.7214     0.9933
12694.200      0.7667     0.9933
12694.300      0.8211     0.9933
12694.400      0.8809     0.9933
12694.500      0.9406     0.9932
12694.600      0.9691     0.9932
12694.700      0.9801     0.9932
12694.800      0.9745     0.9932
12694.900      0.9655     0.9932
12695.000      0.9551     0.9932
12695.100      0.9447     0.9931
12695.200      0.9382     0.9931
12695.300      0.9352     0.9931
12695.400      0.9318     0.9931
12695.500      0.9270     0.9931
12695.600      0.9204     0.9931
12695.700      0.9097     0.9931
12695.800      0.8914     0.9931
12695.900      0.8579     0.9931
12696.000      0.8246     0.9931
12696.100      0.7969     0.9930
12696.200      0.7771     0.9930
12696.300      0.8045     0.9930
12696.400      0.8422     0.9930
12696.500      0.8853     0.9930
12696.600      0.9288     0.9930
12696.700      0.9372     0.9930
12696.800      0.9187     0.9930
12696.900      0.8886     0.9930
12697.000      0.8558     0.9929
12697.100      0.8392     0.9929
12697.200      0.8533     0.9929
12697.300      0.8804     0.9929
12697.400      0.9138     0.9929
12697.500      0.9439     0.9928
12697.600      0.9549     0.9928
12697.700      0.9597     0.9928
12697.800      0.9611     0.9928
12697.900      0.9583     0.9928
12698.000      0.9525     0.9928
12698.100      0.9407     0.9928
12698.200      0.9093     0.9928
12698.300      0.8742     0.9928
12698.400      0.8420     0.9927
12698.500      0.8180     0.9927
12698.600      0.8179     0.9927
12698.700      0.8421     0.9927
12698.800      0.8806     0.9927
12698.900      0.9243     0.9927
12699.000      0.9626     0.9927
12699.100      0.9829     0.9926
12699.200      0.9922     0.9926
12699.300      0.9923     0.9926
12699.400      0.9925     0.9925
12699.500      0.9949     0.9925
12699.600      0.9974     0.9924
12699.700      0.9972     0.9923
12699.800      0.9949     0.9923
12699.900      0.9903     0.9923
12700.000      0.9828     0.9923
12700.100      0.9700     0.9924
12700.200      0.9548     0.9924
12700.300      0.9385     0.9924
12700.400      0.9219     0.9925
12700.500      0.9166     0.9924
12700.600      0.9251     0.9924
12700.700      0.9337     0.9924
12700.800      0.9424     0.9924
12700.900      0.9448     0.9924
12701.000      0.9224     0.9924
12701.100      0.9004     0.9924
12701.200      0.8892     0.9923
12701.300      0.8879     0.9923
12701.400      0.9113     0.9923
12701.500      0.9356     0.9923
12701.600      0.9592     0.9923
12701.700      0.9808     0.9923
12701.800      0.9924     0.9922
12701.900      0.9976     0.9922
12702.000      1.0002     0.9921
12702.100      1.0016     0.9920
12702.200      1.0016     0.9919
12702.300      1.0010     0.9919
12702.400      1.0006     0.9919
12702.500      1.0002     0.9920
12702.600      1.0004     0.9920
12702.700      1.0017     0.9921
12702.800      1.0029     0.9921
12702.900      1.0029     0.9921
12703.000      1.0022     0.9921
12703.100      1.0003     0.9921
12703.200      0.9983     0.9920
12703.300      0.9968     0.9920
12703.400      0.9955     0.9920
12703.500      0.9938     0.9920
12703.600      0.9910     0.9919
12703.700      0.9853     0.9918
12703.800      0.9764     0.9917
12703.900      0.9651     0.9916
12704.000      0.9529     0.9915
12704.100      0.9428     0.9916
12704.200      0.9408     0.9916
12704.300      0.9456     0.9917
12704.400      0.9571     0.9917
12704.500      0.9686     0.9918
12704.600      0.9797     0.9918
12704.700      0.9901     0.9918
12704.800      0.9992     0.9918
12704.900      1.0061     0.9918
12705.000      1.0054     0.9917
12705.100      1.0022     0.9917
12705.200      0.9977     0.9916
12705.300      0.9930     0.9915
12705.400      0.9912     0.9912
12705.500      0.9919     0.9908
12705.600      0.9930     0.9905
12705.700      0.9942     0.9904
12705.800      0.9941     0.9905
12705.900      0.9914     0.9909
12706.000      0.9885     0.9912
12706.100      0.9855     0.9914
12706.200      0.9824     0.9915
12706.300      0.9787     0.9915
12706.400      0.9740     0.9915
12706.500      0.9528     0.9915
12706.600      0.9179     0.9915
12706.700      0.8576     0.9915
12706.800      0.7947     0.9915
12706.900      0.7536     0.9914
12707.000      0.7432     0.9914
12707.100      0.7789     0.9914
12707.200      0.8316     0.9914
12707.300      0.8826     0.9914
12707.400      0.9268     0.9913
12707.500      0.9580     0.9913
12707.600      0.9715     0.9913
12707.700      0.9781     0.9913
12707.800      0.9813     0.9913
12707.900      0.9847     0.9913
12708.000      0.9891     0.9912
12708.100      0.9936     0.9912
12708.200      0.9948     0.9912
12708.300      0.9952     0.9911
12708.400      0.9947     0.9911
12708.500      0.9943     0.9910
12708.600      0.9954     0.9908
12708.700      0.9970     0.9906
12708.800      0.9986     0.9905
12708.900      1.0000     0.9904
12709.000      1.0007     0.9904
12709.100      0.9998     0.9906
12709.200      0.9972     0.9907
12709.300      0.9936     0.9908
12709.400      0.9907     0.9909
12709.500      0.9896     0.9909
12709.600      0.9880     0.9909
12709.700      0.9787     0.9909
12709.800      0.9616     0.9909
12709.900      0.9221     0.9909
12710.000      0.8827     0.9909
12710.100      0.8529     0.9909
12710.200      0.8365     0.9908
12710.300      0.8542     0.9908
12710.400      0.8815     0.9908
12710.500      0.9104     0.9908
12710.600      0.9393     0.9908
12710.700      0.9612     0.9907
12710.800      0.9733     0.9907
12710.900      0.9816     0.9907
12711.000      0.9877     0.9907
12711.100      0.9912     0.9906
12711.200      0.9929     0.9906
12711.300      0.9945     0.9905
12711.400      0.9961     0.9904
12711.500      0.9976     0.9903
12711.600      0.9980     0.9901
12711.700      0.9975     0.9901
12711.800      0.9959     0.9900
12711.900      0.9942     0.9900
12712.000      0.9932     0.9899
12712.100      0.9932     0.9897
12712.200      0.9944     0.9897
12712.300      0.9961     0.9897
12712.400      0.9974     0.9898
12712.500      0.9976     0.9900
12712.600      0.9965     0.9901
12712.700      0.9931     0.9902
12712.800      0.9871     0.9902
12712.900      0.9785     0.9903
12713.000      0.9700     0.9903
12713.100      0.9620     0.9902
12713.200      0.9553     0.9902
12713.300      0.9636     0.9902
12713.400      0.9725     0.9902
12713.500      0.9818     0.9902
12713.600      0.9912     0.9902
12713.700      0.9932     0.9901
12713.800      0.9932     0.9901
12713.900      0.9954     0.9901
12714.000      0.9987     0.9901
12714.100      0.9988     0.9900
12714.200      0.9963     0.9900
12714.300      0.9938     0.9900
12714.400      0.9920     0.9900
12714.500      0.9917     0.9900
12714.600      0.9940     0.9899
12714.700      0.9962     0.9899
12714.800      0.9972     0.9899
12714.900      0.9979     0.9899
12715.000      0.9983     0.9899
12715.100      0.9986     0.9898
12715.200      1.0000     0.9898
12715.300      1.0015     0.9898
12715.400      1.0029     0.9898
12715.500      1.0042     0.9897
12715.600      1.0032     0.9897
12715.700      1.0006     0.9897
12715.800      0.9975     0.9897
12715.900      0.9942     0.9897
12716.000      0.9916     0.9896
12716.100      0.9900     0.9896
12716.200      0.9883     0.9896
12716.300      0.9853     0.9896
12716.400      0.9800     0.9895
12716.500      0.9635     0.9895
12716.600      0.9331     0.9895
12716.700      0.8653     0.9894
12716.800      0.7975     0.9894
12716.900      0.7454     0.9894
12717.000      0.7144     0.9893
12717.100      0.7458     0.9893
12717.200      0.7973     0.9893
12717.300      0.8564     0.9893
12717.400      0.9163     0.9893
12717.500      0.9615     0.9893
12717.600      0.9853     0.9893
12717.700      0.9954     0.9892
12717.800      0.9983     0.9892
12717.900      0.9980     0.9892
12718.000      0.9965     0.9892
12718.100      0.9954     0.9891
12718.200      0.9962     0.9891
12718.300      0.9979     0.9890
12718.400      1.0004     0.9889
12718.500      1.0029     0.9888
12718.600      1.0016     0.9885
12718.700      1.0001     0.9883
12718.800      1.0004     0.9881
12718.900      1.0012     0.9881
12719.000      1.0018     0.9882
12719.100      1.0018     0.9883
12719.200      0.9992     0.9885
12719.300      0.9947     0.9886
12719.400      0.9912     0.9887
12719.500      0.9888     0.9887
12719.600      0.9851     0.9887
12719.700      0.9731     0.9887
12719.800      0.9477     0.9887
12719.900      0.8976     0.9887
12720.000      0.8479     0.9887
12720.100      0.8089     0.9886
12720.200      0.7831     0.9886
12720.300      0.8114     0.9886
12720.400      0.8516     0.9886
12720.500      0.8999     0.9885
12720.600      0.9487     0.9885
12720.700      0.9765     0.9885
12720.800      0.9883     0.9885
12720.900      0.9911     0.9884
12721.000      0.9918     0.9884
12721.100      0.9937     0.9884
12721.200      0.9970     0.9884
12721.300      1.0000     0.9883
12721.400      1.0013     0.9883
12721.500      1.0010     0.9883
12721.600      0.9983     0.9883
12721.700      0.9946     0.9882
12721.800      0.9902     0.9882
12721.900      0.9858     0.9882
12722.000      0.9886     0.9882
12722.100      0.9917     0.9881
12722.200      0.9941     0.9881
12722.300      0.9957     0.9881
12722.400      0.9952     0.9881
12722.500      0.9942     0.9880
12722.600      0.9948     0.9880
12722.700      0.9965     0.9880
12722.800      0.9984     0.9880
12722.900      1.0004     0.9879
12723.000      1.0017     0.9879
12723.100      1.0006     0.9879
12723.200      0.9975     0.9878
12723.300      0.9922     0.9878
12723.400      0.9877     0.9878
12723.500      0.9900     0.9878
12723.600      0.9925     0.9877
12723.700      0.9949     0.9877
12723.800      0.9974     0.9877
12723.900      0.9965     0.9876
12724.000      0.9951     0.9876
12724.100      0.9938     0.9876
12724.200      0.9924     0.9876
12724.300      0.9924     0.9875
12724.400      0.9932     0.9875
12724.500      0.9933     0.9875
12724.600      0.9919     0.9874
12724.700      0.9898     0.9874
12724.800      0.9867     0.9874
12724.900      0.9793     0.9873
12725.000      0.9630     0.9873
12725.100      0.9467     0.9873
12725.200      0.9338     0.9873
12725.300      0.9251     0.9872
12725.400      0.9363     0.9872
12725.500      0.9491     0.9872
12725.600      0.9630     0.9872
12725.700      0.9770     0.9871
12725.800      0.9827     0.9871
12725.900      0.9846     0.9871
12726.000      0.9855     0.9870
12726.100      0.9863     0.9870
12726.200      0.9877     0.9870
12726.300      0.9898     0.9869
12726.400      0.9909     0.9869
12726.500      0.9889     0.9869
12726.600      0.9855     0.9868
12726.700      0.9806     0.9868
12726.800      0.9703     0.9868
12726.900      0.9341     0.9868
12727.000      0.8836     0.9867
12727.100      0.8154     0.9867
12727.200      0.7473     0.9867
12727.300      0.7285     0.9866
12727.400      0.7452     0.9866
12727.500      0.8026     0.9866
12727.600      0.8671     0.9865
12727.700      0.9220     0.9865
12727.800      0.9606     0.9865
12727.900      0.9822     0.9864
12728.000      0.9911     0.9864
12728.100      0.9930     0.9864
12728.200      0.9915     0.9863
12728.300      0.9875     0.9863
12728.400      0.9823     0.9863
12728.500      0.9781     0.9862
12728.600      0.9812     0.9862
12728.700      0.9850     0.9862
12728.800      0.9892     0.9861
12728.900      0.9935     0.9861
12729.000      0.9963     0.9860
12729.100      0.9975     0.9860
12729.200      0.9951     0.9860
12729.300      0.9918     0.9859
12729.400      0.9911     0.9859
12729.500      0.9918     0.9858
12729.600      0.9922     0.9858
12729.700      0.9911     0.9858
12729.800      0.9882     0.9858
12729.900      0.9798     0.9857
12730.000      0.9603     0.9857
12730.100      0.9210     0.9856
12730.200      0.8747     0.9854
12730.300      0.8240     0.9851
12730.400      0.7744     0.9846
12730.500      0.7779     0.9841
12730.600      0.8048     0.9837
12730.700      0.8588     0.9836
12730.800      0.9144     0.9838
12730.900      0.9556     0.9843
12731.000      0.9817     0.9847
12731.100      0.9910     0.9850
12731.200      0.9939     0.9852
12731.300      0.9948     0.9852
12731.400      0.9953     0.9852
12731.500      0.9960     0.9852
12731.600      0.9969     0.9851
12731.700      0.9974     0.9851
12731.800      0.9964     0.9851
12731.900      0.9950     0.9851
12732.000      0.9933     0.9850
12732.100      0.9916     0.9850
12732.200      0.9926     0.9850
12732.300      0.9935     0.9849
12732.400      0.9944     0.9849
12732.500      0.9951     0.9848
12732.600      0.9937     0.9848
12732.700      0.9918     0.9848
12732.800      0.9921     0.9847
12732.900      0.9941     0.9847
12733.000      0.9967     0.9846
12733.100      0.9994     0.9845
12733.200      1.0007     0.9843
12733.300      1.0001     0.9842
12733.400      0.9995     0.9840
12733.500      0.9996     0.9839
12733.600      1.0000     0.9838
12733.700      1.0009     0.9838
12733.800      1.0017     0.9839
12733.900      1.0004     0.9840
12734.000      0.9991     0.9841
12734.100      0.9981     0.9842
12734.200      0.9975     0.9842
12734.300      0.9979     0.9841
12734.400      0.9985     0.9841
12734.500      0.9983     0.9841
12734.600      0.9974     0.9840
12734.700      0.9960     0.9840
12734.800      0.9945     0.9839
12734.900      0.9931     0.9839
12735.000      0.9921     0.9838
12735.100      0.9915     0.9838
12735.200      0.9911     0.9837
12735.300      0.9913     0.9835
12735.400      0.9922     0.9835
12735.500      0.9939     0.9834
12735.600      0.9968     0.9834
12735.700      0.9998     0.9833
12735.800      0.9993     0.9832
12735.900      0.9986     0.9832
12736.000      0.9980     0.9832
12736.100      0.9974     0.9832
12736.200      0.9967     0.9832
12736.300      0.9957     0.9833
12736.400      0.9917     0.9833
12736.500      0.9856     0.9833
12736.600      0.9803     0.9832
12736.700      0.9773     0.9832
12736.800      0.9777     0.9831
12736.900      0.9818     0.9831
12737.000      0.9857     0.9830
12737.100      0.9876     0.9830
12737.200      0.9870     0.9830
12737.300      0.9780     0.9829
12737.400      0.9593     0.9829
12737.500      0.9133     0.9828
12737.600      0.8641     0.9828
12737.700      0.8133     0.9827
12737.800      0.7624     0.9827
12737.900      0.7525     0.9826
12738.000      0.7801     0.9826
12738.100      0.8342     0.9825
12738.200      0.8955     0.9825
12738.300      0.9458     0.9824
12738.400      0.9733     0.9823
12738.500      0.9863     0.9821
12738.600      0.9901     0.9820
12738.700      0.9909     0.9819
12738.800      0.9904     0.9819
12738.900      0.9901     0.9820
12739.000      0.9924     0.9820
12739.100      0.9946     0.9820
12739.200      0.9967     0.9820
12739.300      0.9986     0.9820
12739.400      0.9961     0.9819
12739.500      0.9927     0.9819
12739.600      0.9910     0.9818
12739.700      0.9908     0.9817
12739.800      0.9916     0.9816
12739.900      0.9927     0.9814
12740.000      0.9922     0.9811
12740.100      0.9900     0.9808
12740.200      0.9880     0.9807
12740.300      0.9865     0.9807
12740.400      0.9837     0.9809
12740.500      0.9702     0.9811
12740.600      0.9445     0.9812
12740.700      0.8926     0.9813
12740.800      0.8408     0.9813
12740.900      0.8023     0.9812
12741.000      0.7802     0.9812
12741.100      0.8099     0.9811
12741.200      0.8516     0.9811
12741.300      0.8968     0.9810
12741.400      0.9423     0.9810
12741.500      0.9730     0.9809
12741.600      0.9871     0.9809
12741.700      0.9926     0.9808
12741.800      0.9949     0.9807
12741.900      0.9970     0.9807
12742.000      0.9988     0.9806
12742.100      0.9999     0.9805
12742.200      0.9994     0.9804
12742.300      0.9992     0.9804
12742.400      1.0008     0.9803
12742.500      1.0024     0.9803
12742.600      1.0014     0.9803
12742.700      0.9997     0.9802
12742.800      0.9973     0.9802
12742.900      0.9949     0.9801
12743.000      0.9952     0.9800
12743.100      0.9965     0.9799
12743.200      0.9974     0.9798
12743.300      0.9980     0.9798
12743.400      0.9988     0.9797
12743.500      0.9998     0.9797
12743.600      0.9993     0.9798
12743.700      0.9965     0.9797
12743.800      0.9939     0.9797
12743.900      0.9921     0.9797
12744.000      0.9899     0.9796
12744.100      0.9808     0.9796
12744.200      0.9660     0.9795
12744.300      0.9387     0.9794
12744.400      0.9112     0.9793
12744.500      0.8932     0.9792
12744.600      0.8871     0.9791
12744.700      0.9073     0.9791
12744.800      0.9340     0.9790
12744.900      0.9591     0.9790
12745.000      0.9801     0.9790
12745.100      0.9936     0.9789
12745.200      0.9991     0.9789
12745.300      0.9997     0.9789
12745.400      0.9983     0.9788
12745.500      0.9970     0.9788
12745.600      0.9963     0.9787
12745.700      0.9965     0.9787
12745.800      0.9981     0.9786
12745.900      0.9997     0.9785
12746.000      1.0009     0.9784
12746.100      1.0018     0.9784
12746.200      1.0004     0.9783
12746.300      0.9987     0.9782
12746.400      0.9971     0.9782
12746.500      0.9957     0.9782
12746.600      0.9955     0.9781
12746.700      0.9965     0.9781
12746.800      0.9988     0.9780
12746.900      1.0016     0.9780
12747.000      1.0032     0.9779
12747.100      1.0025     0.9778
12747.200      1.0009     0.9777
12747.300      0.9989     0.9777
12747.400      0.9974     0.9776
12747.500      0.9990     0.9775
12747.600      1.0005     0.9774
12747.700      1.0005     0.9774
12747.800      0.9994     0.9773
12747.900      0.9975     0.9773
12748.000      0.9939     0.9773
12748.100      0.9862     0.9772
12748.200      0.9711     0.9772
12748.300      0.9389     0.9771
12748.400      0.8967     0.9770
12748.500      0.8508     0.9770
12748.600      0.8040     0.9769
12748.700      0.7771     0.9768
12748.800      0.7946     0.9768
12748.900      0.8350     0.9767
12749.000      0.8886     0.9766
12749.100      0.9394     0.9766
12749.200      0.9685     0.9765
12749.300      0.9864     0.9764
12749.400      0.9931     0.9764
12749.500      0.9964     0.9763
12749.600      0.9976     0.9762
12749.700      0.9979     0.9761
12749.800      0.9974     0.9760
12749.900      0.9969     0.9759
12750.000      0.9994     0.9759
12750.100      1.0033     0.9759
12750.200      1.0059     0.9758
12750.300      1.0060     0.9758
12750.400      1.0040     0.9757
12750.500      1.0010     0.9756
12750.600      0.9998     0.9756
12750.700      1.0032     0.9755
12750.800      1.0055     0.9754
12750.900      1.0017     0.9754
12751.000      0.9980     0.9753
12751.100      0.9948     0.9752
12751.200      0.9916     0.9751
12751.300      0.9804     0.9751
12751.400      0.9596     0.9750
12751.500      0.9163     0.9749
12751.600      0.8685     0.9749
12751.700      0.8340     0.9748
12751.800      0.8217     0.9747
12751.900      0.8421     0.9746
12752.000      0.8783     0.9746
12752.100      0.9143     0.9745
12752.200      0.9485     0.9744
12752.300      0.9756     0.9744
12752.400      0.9867     0.9743
12752.500      0.9928     0.9742
12752.600      0.9961     0.9741
12752.700      0.9979     0.9740
12752.800      0.9989     0.9740
12752.900      0.9989     0.9739
12753.000      0.9976     0.9738
12753.100      0.9962     0.9737
12753.200      0.9953     0.9736
12753.300      0.9953     0.9735
12753.400      0.9982     0.9735
12753.500      1.0022     0.9734
12753.600      1.0044     0.9733
12753.700      1.0041     0.9733
12753.800      1.0019     0.9732
12753.900      0.9991     0.9731
12754.000      0.9978     0.9730
12754.100      0.9997     0.9729
12754.200      1.0016     0.9729
12754.300      1.0024     0.9728
12754.400      1.0023     0.9727
12754.500      1.0008     0.9726
12754.600      0.9992     0.9725
12754.700      0.9983     0.9723
12754.800      0.9974     0.9722
12754.900      0.9954     0.9720
12755.000      0.9930     0.9718
12755.100      0.9939     0.9717
12755.200      0.9963     0.9717
12755.300      0.9975     0.9717
12755.400      0.9977     0.9717
12755.500      0.9982     0.9717
12755.600      0.9992     0.9717
12755.700      1.0001     0.9716
12755.800      1.0009     0.9716
12755.900      1.0012     0.9715
12756.000      0.9998     0.9714
12756.100      0.9984     0.9713
12756.200      0.9976     0.9713
12756.300      0.9976     0.9712
12756.400      0.9996     0.9711
12756.500      1.0018     0.9710
12756.600      1.0006     0.9709
12756.700      0.9987     0.9708
12756.800      0.9971     0.9707
12756.900      0.9962     0.9706
12757.000      0.9969     0.9705
12757.100      0.9985     0.9704
12757.200      1.0000     0.9703
12757.300      1.0013     0.9702
12757.400      1.0014     0.9701
12757.500      0.9994     0.9700
12757.600      0.9968     0.9700
12757.700      0.9938     0.9699
12757.800      0.9913     0.9698
12757.900      0.9947     0.9697
12758.000      0.9981     0.9697
12758.100      1.0002     0.9696
12758.200      1.0009     0.9695
12758.300      0.9988     0.9694
12758.400      0.9963     0.9693
12758.500      0.9964     0.9692
12758.600      0.9976     0.9691
12758.700      0.9984     0.9690
12758.800      0.9984     0.9689
12758.900      0.9969     0.9688
12759.000      0.9942     0.9687
12759.100      0.9914     0.9686
12759.200      0.9885     0.9685
12759.300      0.9819     0.9684
12759.400      0.9574     0.9683
12759.500      0.9233     0.9683
12759.600      0.8799     0.9682
12759.700      0.8365     0.9681
12759.800      0.8245     0.9680
12759.900      0.8326     0.9679
12760.000      0.8691     0.9678
12760.100      0.9085     0.9677
12760.200      0.9423     0.9676
12760.300      0.9672     0.9675
12760.400      0.9786     0.9674
12760.500      0.9835     0.9673
12760.600      0.9869     0.9671
12760.700      0.9900     0.9670
12760.800      0.9937     0.9669
12760.900      0.9982     0.9667
12761.000      1.0015     0.9666
12761.100      1.0008     0.9665
12761.200      1.0001     0.9664
12761.300      0.9998     0.9664
12761.400      0.9997     0.9663
12761.500      1.0000     0.9662
12761.600      1.0003     0.9661
12761.700      0.9986     0.9660
12761.800      0.9966     0.9659
12761.900      0.9954     0.9658
12762.000      0.9944     0.9657
12762.100      0.9931     0.9656
12762.200      0.9906     0.9655
12762.300      0.9855     0.9654
12762.400      0.9739     0.9653
12762.500      0.9497     0.9652
12762.600      0.9127     0.9651
12762.700      0.8768     0.9650
12762.800      0.8508     0.9649
12762.900      0.8403     0.9647
12763.000      0.8697     0.9646
12763.100      0.9013     0.9645
12763.200      0.9340     0.9644
12763.300      0.9667     0.9643
12763.400      0.9820     0.9642
12763.500      0.9860     0.9640
12763.600      0.9828     0.9639
12763.700      0.9719     0.9638
12763.800      0.9482     0.9636
12763.900      0.9202     0.9635
12764.000      0.8950     0.9634
12764.100      0.8797     0.9633
12764.200      0.8834     0.9632
12764.300      0.9066     0.9631
12764.400      0.9306     0.9630
12764.500      0.9549     0.9629
12764.600      0.9773     0.9628
12764.700      0.9854     0.9627
12764.800      0.9894     0.9625
12764.900      0.9901     0.9624
12765.000      0.9908     0.9623
12765.100      0.9914     0.9622
12765.200      0.9919     0.9621
12765.300      0.9909     0.9620
12765.400      0.9894     0.9619
12765.500      0.9908     0.9617
12765.600      0.9938     0.9616
12765.700      0.9959     0.9615
12765.800      0.9972     0.9614
12765.900      0.9983     0.9612
12766.000      0.9994     0.9611
12766.100      1.0003     0.9610
12766.200      1.0008     0.9609
12766.300      1.0014     0.9607
12766.400      1.0024     0.9606
12766.500      1.0033     0.9605
12766.600      1.0028     0.9604
12766.700      1.0009     0.9602
12766.800      0.9962     0.9601
12766.900      0.9913     0.9600
12767.000      0.9876     0.9598
12767.100      0.9859     0.9597
12767.200      0.9878     0.9596
12767.300      0.9910     0.9595
12767.400      0.9930     0.9593
12767.500      0.9938     0.9592
12767.600      0.9946     0.9591
12767.700      0.9954     0.9589
12767.800      0.9951     0.9588
12767.900      0.9922     0.9587
12768.000      0.9893     0.9585
12768.100      0.9875     0.9584
12768.200      0.9869     0.9583
12768.300      0.9905     0.9581
12768.400      0.9941     0.9580
12768.500      0.9973     0.9578
12768.600      0.9998     0.9577
12768.700      1.0011     0.9576
12768.800      1.0012     0.9574
12768.900      0.9999     0.9573
12769.000      0.9982     0.9572
12769.100      0.9968     0.9570
12769.200      0.9957     0.9569
12769.300      0.9950     0.9567
12769.400      0.9946     0.9566
12769.500      0.9931     0.9564
12769.600      0.9888     0.9563
12769.700      0.9848     0.9562
12769.800      0.9824     0.9560
12769.900      0.9813     0.9559
12770.000      0.9825     0.9557
12770.100      0.9837     0.9556
12770.200      0.9823     0.9554
12770.300      0.9778     0.9553
12770.400      0.9684     0.9551
12770.500      0.9551     0.9550
12770.600      0.9382     0.9548
12770.700      0.9194     0.9547
12770.800      0.8992     0.9545
12770.900      0.8785     0.9544
12771.000      0.8602     0.9542
12771.100      0.8513     0.9540
12771.200      0.8571     0.9538
12771.300      0.8818     0.9535
12771.400      0.9105     0.9533
12771.500      0.9409     0.9531
12771.600      0.9706     0.9530
12771.700      0.9840     0.9529
12771.800      0.9913     0.9529
12771.900      0.9928     0.9528
12772.000      0.9931     0.9527
12772.100      0.9930     0.9525
12772.200      0.9926     0.9524
12772.300      0.9916     0.9522
12772.400      0.9906     0.9520
12772.500      0.9896     0.9519
12772.600      0.9889     0.9517
12772.700      0.9884     0.9516
12772.800      0.9884     0.9514
12772.900      0.9894     0.9512
12773.000      0.9915     0.9511
12773.100      0.9930     0.9509
12773.200      0.9923     0.9507
12773.300      0.9911     0.9506
12773.400      0.9896     0.9504
12773.500      0.9877     0.9502
12773.600      0.9850     0.9501
12773.700      0.9807     0.9499
12773.800      0.9683     0.9497
12773.900      0.9504     0.9495
12774.000      0.9278     0.9494
12774.100      0.9042     0.9492
12774.200      0.8929     0.9490
12774.300      0.8988     0.9488
12774.400      0.9170     0.9486
12774.500      0.9405     0.9484
12774.600      0.9621     0.9483
12774.700      0.9772     0.9481
12774.800      0.9876     0.9479
12774.900      0.9933     0.9478
12775.000      0.9963     0.9476
12775.100      0.9974     0.9474
12775.200      0.9973     0.9473
12775.300      0.9961     0.9471
12775.400      0.9948     0.9469
12775.500      0.9951     0.9467
12775.600      0.9958     0.9465
12775.700      0.9960     0.9463
12775.800      0.9959     0.9462
12775.900      0.9960     0.9460
12776.000      0.9962     0.9458
12776.100      0.9969     0.9456
12776.200      0.9978     0.9454
12776.300      0.9983     0.9452
12776.400      0.9982     0.9450
12776.500      0.9983     0.9448
12776.600      0.9993     0.9446
12776.700      1.0002     0.9444
12776.800      1.0000     0.9442
12776.900      0.9992     0.9441
12777.000      0.9976     0.9439
12777.100      0.9961     0.9437
12777.200      0.9958     0.9435
12777.300      0.9961     0.9433
12777.400      0.9969     0.9431
12777.500      0.9977     0.9429
12777.600      0.9986     0.9427
12777.700      0.9992     0.9425
12777.800      0.9994     0.9422
12777.900      0.9991     0.9420
12778.000      0.9986     0.9418
12778.100      0.9980     0.9415
12778.200      0.9981     0.9413
12778.300      1.0006     0.9411
12778.400      1.0028     0.9409
12778.500      1.0011     0.9407
12778.600      0.9994     0.9405
12778.700      0.9980     0.9403
12778.800      0.9970     0.9401
12778.900      0.9972     0.9400
12779.000      0.9975     0.9398
12779.100      0.9972     0.9396
12779.200      0.9967     0.9394
12779.300      0.9970     0.9392
12779.400      0.9979     0.9389
12779.500      0.9984     0.9387
12779.600      0.9987     0.9385
12779.700      0.9992     0.9383
12779.800      1.0004     0.9381
12779.900      1.0015     0.9378
12780.000      1.0020     0.9376
12780.100      1.0019     0.9374
12780.200      1.0005     0.9372
12780.300      0.9991     0.9369
12780.400      0.9994     0.9367
12780.500      0.9998     0.9365
12780.600      1.0002     0.9362
12780.700      1.0005     0.9360
12780.800      1.0006     0.9358
12780.900      1.0001     0.9356
12781.000      0.9976     0.9353
12781.100      0.9940     0.9351
12781.200      0.9922     0.9348
12781.300      0.9935     0.9346
12781.400      0.9966     0.9343
12781.500      1.0006     0.9340
12781.600      1.0030     0.9338
12781.700      1.0004     0.9336
12781.800      0.9978     0.9334
12781.900      0.9954     0.9332
12782.000      0.9933     0.9329
12782.100      0.9936     0.9326
12782.200      0.9938     0.9321
12782.300      0.9904     0.9316
12782.400      0.9822     0.9309
12782.500      0.9638     0.9302
12782.600      0.9429     0.9298
12782.700      0.9261     0.9298
12782.800      0.9176     0.9299
12782.900      0.9215     0.9301
12783.000      0.9342     0.9302
12783.100      0.9496     0.9301
12783.200      0.9656     0.9299
12783.300      0.9802     0.9297
12783.400      0.9856     0.9295
12783.500      0.9829     0.9292
12783.600      0.9685     0.9290
12783.700      0.9480     0.9287
12783.800      0.9212     0.9284
12783.900      0.8945     0.9282
12784.000      0.8846     0.9279
12784.100      0.8887     0.9277
12784.200      0.9122     0.9274
12784.300      0.9392     0.9272
12784.400      0.9635     0.9269
12784.500      0.9818     0.9266
12784.600      0.9908     0.9263
12784.700      0.9923     0.9261
12784.800      0.9904     0.9258
12784.900      0.9874     0.9255
12785.000      0.9846     0.9252
12785.100      0.9822     0.9250
12785.200      0.9798     0.9247
12785.300      0.9770     0.9244
12785.400      0.9733     0.9241
12785.500      0.9605     0.9238
12785.600      0.9478     0.9235
12785.700      0.9362     0.9233
12785.800      0.9266     0.9230
12785.900      0.9311     0.9227
12786.000      0.9430     0.9224
12786.100      0.9592     0.9221
12786.200      0.9761     0.9219
12786.300      0.9884     0.9216
12786.400      0.9942     0.9213
12786.500      0.9973     0.9210
12786.600      0.9990     0.9206
12786.700      0.9996     0.9203
12786.800      0.9995     0.9200
12786.900      0.9990     0.9196
12787.000      0.9981     0.9192
12787.100      0.9973     0.9189
12787.200      0.9991     0.9186
12787.300      1.0009     0.9183
12787.400      1.0016     0.9181
12787.500      1.0018     0.9179
12787.600      1.0018     0.9176
12787.700      1.0013     0.9173
12787.800      0.9994     0.9170
12787.900      0.9969     0.9167
12788.000      0.9972     0.9164
12788.100      1.0001     0.9161
12788.200      1.0011     0.9158
12788.300      0.9998     0.9155
12788.400      0.9996     0.9152
12788.500      1.0024     0.9149
12788.600      1.0053     0.9145
12788.700      1.0082     0.9142
12788.800      1.0109     0.9139
12788.900      1.0086     0.9135
12789.000      1.0064     0.9132
12789.100      1.0078     0.9128
12789.200      1.0095     0.9124
12789.300      1.0109     0.9121
12789.400      1.0118     0.9117
12789.500      1.0112     0.9114
12789.600      1.0103     0.9111
12789.700      1.0105     0.9108
12789.800      1.0117     0.9105
12789.900      1.0130     0.9101
12790.000      1.0142     0.9098
12790.100      1.0134     0.9093
12790.200      1.0082     0.9089
12790.300      1.0040     0.9084
12790.400      1.0047     0.9080
12790.500      1.0064     0.9077
12790.600      1.0089     0.9074
12790.700      1.0113     0.9071
12790.800      1.0105     0.9068
12790.900      1.0095     0.9066
12791.000      1.0100     0.9063
12791.100      1.0108     0.9059
12791.200      1.0098     0.9056
12791.300      1.0078     0.9052
12791.400      1.0067     0.9049
12791.500      1.0066     0.9045
12791.600      1.0073     0.9041
12791.700      1.0084     0.9037
12791.800      1.0095     0.9033
12791.900      1.0103     0.9029
12792.000      1.0100     0.9025
12792.100      1.0059     0.9021
12792.200      1.0020     0.9017
12792.300      1.0020     0.9013
12792.400      1.0019     0.9010
12792.500      0.9996     0.9006
12792.600      0.9945     0.9003
12792.700      0.9827     0.8999
12792.800      0.9696     0.8996
12792.900      0.9604     0.8992
12793.000      0.9576     0.8988
12793.100      0.9647     0.8985
12793.200      0.9765     0.8981
12793.300      0.9874     0.8977
12793.400      0.9961     0.8973
12793.500      1.0027     0.8969
12793.600      1.0070     0.8965
12793.700      1.0097     0.8961
12793.800      1.0112     0.8957
12793.900      1.0114     0.8953
12794.000      1.0100     0.8948
12794.100      1.0079     0.8944
12794.200      1.0055     0.8940
12794.300      1.0021     0.8936
12794.400      0.9900     0.8931
12794.500      0.9763     0.8927
12794.600      0.9654     0.8923
12794.700      0.9590     0.8919
12794.800      0.9585     0.8915
12794.900      0.9635     0.8911
12795.000      0.9736     0.8907
12795.100      0.9858     0.8902
12795.200      0.9971     0.8898
12795.300      1.0052     0.8894
12795.400      1.0104     0.8889
12795.500      1.0124     0.8885
12795.600      1.0145     0.8881
12795.700      1.0168     0.8876
12795.800      1.0191     0.8872
12795.900      1.0199     0.8867
12796.000      1.0196     0.8863
12796.100      1.0177     0.8858
12796.200      1.0154     0.8854
12796.300      1.0132     0.8849
12796.400      1.0108     0.8844
12796.500      1.0066     0.8840
12796.600      1.0012     0.8835
12796.700      0.9974     0.8830
12796.800      0.9963     0.8826
12796.900      0.9969     0.8821
12797.000      0.9981     0.8816
12797.100      0.9994     0.8812
12797.200      1.0000     0.8807
12797.300      0.9992     0.8802
12797.400      0.9923     0.8797
12797.500      0.9853     0.8792
12797.600      0.9783     0.8787
12797.700      0.9713     0.8782
12797.800      0.9728     0.8778
12797.900      0.9785     0.8773
12798.000      0.9871     0.8768
12798.100      0.9962     0.8763
12798.200      1.0033     0.8758
12798.300      1.0068     0.8753
12798.400      1.0066     0.8748
12798.500      1.0039     0.8743
12798.600      1.0003     0.8738
12798.700      0.9965     0.8733
12798.800      0.9926     0.8727
12798.900      0.9889     0.8722
12799.000      0.9852     0.8717
12799.100      0.9825     0.8712
12799.200      0.9809     0.8706
12799.300      0.9841     0.8700
12799.400      0.9873     0.8695
12799.500      0.9900     0.8690
12799.600      0.9921     0.8684
12799.700      0.9935     0.8679
12799.800      0.9943     0.8674
12799.900      0.9944     0.8669
12800.000      0.9943     0.8664
12800.100      0.9964     0.8658
12800.200      1.0008     0.8653
12800.300      1.0048     0.8647
12800.400      1.0074     0.8642
12800.500      1.0085     0.8636
12800.600      1.0082     0.8631
12800.700      1.0077     0.8625
12800.800      1.0071     0.8619
12800.900      1.0066     0.8614
12801.000      1.0072     0.8608
12801.100      1.0084     0.8602
12801.200      1.0101     0.8596
12801.300      1.0119     0.8591
12801.400      1.0105     0.8585
12801.500      1.0081     0.8579
12801.600      1.0068     0.8573
12801.700      1.0062     0.8567
12801.800      1.0053     0.8561
12801.900      1.0036     0.8555
12802.000      1.0005     0.8549
12802.100      0.9961     0.8543
12802.200      0.9939     0.8537
12802.300      0.9978     0.8530
12802.400      1.0011     0.8524
12802.500      1.0004     0.8518
12802.600      0.9996     0.8511
12802.700      0.9992     0.8505
12802.800      0.9992     0.8499
12802.900      1.0004     0.8493
12803.000      1.0017     0.8487
12803.100      1.0023     0.8480
12803.200      1.0016     0.8474
12803.300      0.9990     0.8468
12803.400      0.9958     0.8461
12803.500      0.9937     0.8455
12803.600      0.9928     0.8448
12803.700      0.9875     0.8442
12803.800      0.9713     0.8435
12803.900      0.9481     0.8428
12804.000      0.9201     0.8421
12804.100      0.8952     0.8415
12804.200      0.8942     0.8408
12804.300      0.9048     0.8401
12804.400      0.9283     0.8394
12804.500      0.9517     0.8388
12804.600      0.9717     0.8381
12804.700      0.9874     0.8374
12804.800      0.9948     0.8367
12804.900      0.9979     0.8360
12805.000      0.9982     0.8353
12805.100      0.9980     0.8346
12805.200      0.9982     0.8339
12805.300      0.9989     0.8331
12805.400      1.0002     0.8324
12805.500      1.0019     0.8317
12805.600      1.0023     0.8309
12805.700      0.9996     0.8302
12805.800      0.9973     0.8295
12805.900      0.9971     0.8287
12806.000      0.9980     0.8280
12806.100      1.0001     0.8273
12806.200      1.0023     0.8265
12806.300      1.0019     0.8258
12806.400      0.9998     0.8250
12806.500      0.9955     0.8242
12806.600      0.9908     0.8234
12806.700      0.9864     0.8226
12806.800      0.9823     0.8218
12806.900      0.9799     0.8210
12807.000      0.9800     0.8202
12807.100      0.9821     0.8194
12807.200      0.9854     0.8186
12807.300      0.9882     0.8178
12807.400      0.9894     0.8170
12807.500      0.9898     0.8162
12807.600      0.9898     0.8154
12807.700      0.9885     0.8146
12807.800      0.9840     0.8138
12807.900      0.9773     0.8130
12808.000      0.9674     0.8121
12808.100      0.9574     0.8112
12808.200      0.9500     0.8104
12808.300      0.9458     0.8095
12808.400      0.9454     0.8087
12808.500      0.9486     0.8078
12808.600      0.9560     0.8070
12808.700      0.9649     0.8061
12808.800      0.9731     0.8052
12808.900      0.9790     0.8043
12809.000      0.9827     0.8034
12809.100      0.9837     0.8025
12809.200      0.9831     0.8016
12809.300      0.9812     0.8007
12809.400      0.9774     0.7998
12809.500      0.9699     0.7988
12809.600      0.9625     0.7979
12809.700      0.9589     0.7970
12809.800      0.9579     0.7960
12809.900      0.9591     0.7951
12810.000      0.9618     0.7941
12810.100      0.9666     0.7931
12810.200      0.9717     0.7922
12810.300      0.9752     0.7912
12810.400      0.9763     0.7902
12810.500      0.9757     0.7892
12810.600      0.9745     0.7882
12810.700      0.9740     0.7872
12810.800      0.9753     0.7862
12810.900      0.9760     0.7851
12811.000      0.9745     0.7841
12811.100      0.9731     0.7830
12811.200      0.9718     0.7819
12811.300      0.9707     0.7809
12811.400      0.9702     0.7798
12811.500      0.9700     0.7787
12811.600      0.9700     0.7776
12811.700      0.9701     0.7765
12811.800      0.9692     0.7754
12811.900      0.9677     0.7743
12812.000      0.9658     0.7732
12812.100      0.9638     0.7720
12812.200      0.9617     0.7709
12812.300      0.9597     0.7697
12812.400      0.9583     0.7685
12812.500      0.9582     0.7673
12812.600      0.9579     0.7661
12812.700      0.9570     0.7649
12812.800      0.9561     0.7636
12812.900      0.9555     0.7624
12813.000      0.9550     0.7611
12813.100      0.9548     0.7598
12813.200      0.9547     0.7585
12813.300      0.9520     0.7572
12813.400      0.9489     0.7559
12813.500      0.9497     0.7546
12813.600      0.9519     0.7532
12813.700      0.9530     0.7518
12813.800      0.9524     0.7504
12813.900      0.9510     0.7490
12814.000      0.9491     0.7475
12814.100      0.9468     0.7460
12814.200      0.9443     0.7445
12814.300      0.9416     0.7430
12814.400      0.9388     0.7415
12814.500      0.9364     0.7399
12814.600      0.9370     0.7383
12814.700      0.9376     0.7366
12814.800      0.9380     0.7349
12814.900      0.9382     0.7332
12815.000      0.9366     0.7314
12815.100      0.9347     0.7296
12815.200      0.9331     0.7278
12815.300      0.9320     0.7259
12815.400      0.9316     0.7239
12815.500      0.9322     0.7219
12815.600      0.9343     0.7198
12815.700      0.9373     0.7176
12815.800      0.9381     0.7154
12815.900      0.9348     0.7131
12816.000      0.9315     0.7107
12816.100      0.9282     0.7081
12816.200      0.9249     0.7055
12816.300      0.9225     0.7027
12816.400      0.9206     0.6998
12816.500      0.9196     0.6967
12816.600      0.9190     0.6934
12816.700      0.9186     0.6899
12816.800      0.9182     0.6861
12816.900      0.9159     0.6820
12817.000      0.9129     0.6775
12817.100      0.9100     0.6726
12817.200      0.9075     0.6671
12817.300      0.9059     0.6609
12817.400      0.9049     0.6536
12817.500      0.9035     0.6450
12817.600      0.9013     0.6345
12817.700      0.8990     0.6220
12817.800      0.8965     0.6085
12817.900      0.8942     0.5964
12818.000      0.8922     0.5891
12818.100      0.8903     0.5891
12818.200      0.8875     0.5966
12818.300      0.8847     0.6087
12818.400      0.8861     0.6222
12818.500      0.8882     0.6347
12818.600      0.8901     0.6451
12818.700      0.8913     0.6538
12818.800      0.8893     0.6610
12818.900      0.8844     0.6672
12819.000      0.8781     0.6727
12819.100      0.8714     0.6776
12819.200      0.8660     0.6821
12819.300      0.8632     0.6862
12819.400      0.8612     0.6900
12819.500      0.8596     0.6935
12819.600      0.8582     0.6968
12819.700      0.8567     0.6999
12819.800      0.8553     0.7028
12819.900      0.8544     0.7056
12820.000      0.8535     0.7083
12820.100      0.8504     0.7108
12820.200      0.8465     0.7132
12820.300      0.8418     0.7155
12820.400      0.8371     0.7178
12820.500      0.8337     0.7199
12820.600      0.8310     0.7220
12820.700      0.8261     0.7241
12820.800      0.8190     0.7260
12820.900      0.8128     0.7279
12821.000      0.8090     0.7298
12821.100      0.8064     0.7316
12821.200      0.8047     0.7334
12821.300      0.8025     0.7351
12821.400      0.7972     0.7368
12821.500      0.7910     0.7384
12821.600      0.7846     0.7401
12821.700      0.7774     0.7416
12821.800      0.7688     0.7432
12821.900      0.7597     0.7447
12822.000      0.7504     0.7462
12822.100      0.7411     0.7477
12822.200      0.7318     0.7492
12822.300      0.7227     0.7506
12822.400      0.7163     0.7520
12822.500      0.7129     0.7534
12822.600      0.7107     0.7548
12822.700      0.7089     0.7561
12822.800      0.7072     0.7575
12822.900      0.7054     0.7588
12823.000      0.7036     0.7601
12823.100      0.7029     0.7614
12823.200      0.7031     0.7626
12823.300      0.7057     0.7639
12823.400      0.7090     0.7651
12823.500      0.7127     0.7664
12823.600      0.7168     0.7676
12823.700      0.7217     0.7687
12823.800      0.7268     0.7699
12823.900      0.7319     0.7711
12824.000      0.7370     0.7723
12824.100      0.7415     0.7734
12824.200      0.7439     0.7746
12824.300      0.7411     0.7757
12824.400      0.7331     0.7768
12824.500      0.7258     0.7779
12824.600      0.7231     0.7790
12824.700      0.7275     0.7801
12824.800      0.7471     0.7812
12824.900      0.7667     0.7823
12825.000      0.7863     0.7833
12825.100      0.8058     0.7844
12825.200      0.8168     0.7854
12825.300      0.8249     0.7865
12825.400      0.8317     0.7875
12825.500      0.8374     0.7885
12825.600      0.8424     0.7895
12825.700      0.8466     0.7905
12825.800      0.8487     0.7915
12825.900      0.8496     0.7925
12826.000      0.8503     0.7935
12826.100      0.8509     0.7945
12826.200      0.8524     0.7954
12826.300      0.8560     0.7964
12826.400      0.8597     0.7973
12826.500      0.8636     0.7983
12826.600      0.8674     0.7992
12826.700      0.8691     0.8001
12826.800      0.8707     0.8010
12826.900      0.8743     0.8019
12827.000      0.8780     0.8028
12827.100      0.8804     0.8038
12827.200      0.8817     0.8047
12827.300      0.8813     0.8056
12827.400      0.8806     0.8065
12827.500      0.8801     0.8074
12827.600      0.8804     0.8082
12827.700      0.8816     0.8091
12827.800      0.8839     0.8100
12827.900      0.8871     0.8108
12828.000      0.8909     0.8117
12828.100      0.8944     0.8126
12828.200      0.8964     0.8134
12828.300      0.8982     0.8142
12828.400      0.8997     0.8151
12828.500      0.9013     0.8159
12828.600      0.9055     0.8167
12828.700      0.9098     0.8175
12828.800      0.9127     0.8183
12828.900      0.9137     0.8191
12829.000      0.9120     0.8199
12829.100      0.9095     0.8207
12829.200      0.9083     0.8215
12829.300      0.9083     0.8223
12829.400      0.9082     0.8231
12829.500      0.9080     0.8239
12829.600      0.9083     0.8247
12829.700      0.9095     0.8254
12829.800      0.9108     0.8262
12829.900      0.9123     0.8269
12830.000      0.9137     0.8277
12830.100      0.9144     0.8284
12830.200      0.9151     0.8291
12830.300      0.9166     0.8298
12830.400      0.9188     0.8305
12830.500      0.9225     0.8313
12830.600      0.9263     0.8320
12830.700      0.9281     0.8328
12830.800      0.9277     0.8336
12830.900      0.9256     0.8343
12831.000      0.9229     0.8351
12831.100      0.9210     0.8358
12831.200      0.9202     0.8365
12831.300      0.9198     0.8372
12831.400      0.9196     0.8379
12831.500      0.9196     0.8386
12831.600      0.9196     0.8392
12831.700      0.9200     0.8399
12831.800      0.9214     0.8406
12831.900      0.9230     0.8413
12832.000      0.9249     0.8420
12832.100      0.9269     0.8427
12832.200      0.9293     0.8433
12832.300      0.9316     0.8440
12832.400      0.9335     0.8447
12832.500      0.9349     0.8453
12832.600      0.9361     0.8460
12832.700      0.9372     0.8466
12832.800      0.9385     0.8473
12832.900      0.9402     0.8479
12833.000      0.9422     0.8486
12833.100      0.9444     0.8492
12833.200      0.9463     0.8499
12833.300      0.9467     0.8505
12833.400      0.9460     0.8511
12833.500      0.9440     0.8517
12833.600      0.9420     0.8523
12833.700      0.9412     0.8529
12833.800      0.9416     0.8535
12833.900      0.9440     0.8542
12834.000      0.9466     0.8548
12834.100      0.9490     0.8554
12834.200      0.9511     0.8560
12834.300      0.9519     0.8566
12834.400      0.9518     0.8572
12834.500      0.9516     0.8578
12834.600      0.9512     0.8584
12834.700      0.9505     0.8590
12834.800      0.9494     0.8596
12834.900      0.9484     0.8602
12835.000      0.9475     0.8608
12835.100      0.9473     0.8614
12835.200      0.9506     0.8619
12835.300      0.9540     0.8625
12835.400      0.9573     0.8631
12835.500      0.9605     0.8636
12835.600      0.9614     0.8642
12835.700      0.9611     0.8648
12835.800      0.9602     0.8653
12835.900      0.9592     0.8659
12836.000      0.9582     0.8664
12836.100      0.9574     0.8670
12836.200      0.9572     0.8675
12836.300      0.9579     0.8681
12836.400      0.9595     0.8686
12836.500      0.9616     0.8691
12836.600      0.9635     0.8697
12836.700      0.9641     0.8702
12836.800      0.9638     0.8707
12836.900      0.9627     0.8713
12837.000      0.9615     0.8718
12837.100      0.9648     0.8723
12837.200      0.9681     0.8728
12837.300      0.9679     0.8734
12837.400      0.9671     0.8739
12837.500      0.9680     0.8744
12837.600      0.9697     0.8749
12837.700      0.9716     0.8754
12837.800      0.9735     0.8759
12837.900      0.9739     0.8764
12838.000      0.9727     0.8769
12838.100      0.9732     0.8774
12838.200      0.9762     0.8779
12838.300      0.9790     0.8784
12838.400      0.9802     0.8789
12838.500      0.9804     0.8794
12838.600      0.9794     0.8799
12838.700      0.9785     0.8803
12838.800      0.9781     0.8808
12838.900      0.9780     0.8813
12839.000      0.9787     0.8818
12839.100      0.9795     0.8823
12839.200      0.9796     0.8827
12839.300      0.9795     0.8832
12839.400      0.9800     0.8837
12839.500      0.9806     0.8842
12839.600      0.9813     0.8846
12839.700      0.9819     0.8851
12839.800      0.9815     0.8855
12839.900      0.9795     0.8860
12840.000      0.9784     0.8865
12840.100      0.9799     0.8869
12840.200      0.9813     0.8873
12840.300      0.9821     0.8877
12840.400      0.9830     0.8881
12840.500      0.9849     0.8885
12840.600      0.9869     0.8890
12840.700      0.9881     0.8894
12840.800      0.9885     0.8899
12840.900      0.9867     0.8904
12841.000      0.9844     0.8909
12841.100      0.9834     0.8913
12841.200      0.9830     0.8918
12841.300      0.9825     0.8922
12841.400      0.9818     0.8926
12841.500      0.9788     0.8930
12841.600      0.9728     0.8934
12841.700      0.9678     0.8939
12841.800      0.9663     0.8943
12841.900      0.9664     0.8947
12842.000      0.9675     0.8951
12842.100      0.9700     0.8955
12842.200      0.9745     0.8959
12842.300      0.9789     0.8963
12842.400      0.9826     0.8967
12842.500      0.9854     0.8971
12842.600      0.9862     0.8975
12842.700      0.9867     0.8979
12842.800      0.9878     0.8983
12842.900      0.9894     0.8987
12843.000      0.9900     0.8991
12843.100      0.9896     0.8995
12843.200      0.9895     0.8999
12843.300      0.9898     0.9003
12843.400      0.9894     0.9007
12843.500      0.9876     0.9011
12843.600      0.9858     0.9015
12843.700      0.9852     0.9019
12843.800      0.9858     0.9023
12843.900      0.9895     0.9026
12844.000      0.9932     0.9030
12844.100      0.9916     0.9034
12844.200      0.9896     0.9038
12844.300      0.9902     0.9041
12844.400      0.9914     0.9045
12844.500      0.9922     0.9049
12844.600      0.9923     0.9052
12844.700      0.9912     0.9055
12844.800      0.9886     0.9058
12844.900      0.9851     0.9062
12845.000      0.9804     0.9065
12845.100      0.9728     0.9069
12845.200      0.9617     0.9073
12845.300      0.9507     0.9077
12845.400      0.9406     0.9081
12845.500      0.9327     0.9085
12845.600      0.9410     0.9088
12845.700      0.9494     0.9091
12845.800      0.9573     0.9094
12845.900      0.9647     0.9096
12846.000      0.9669     0.9098
12846.100      0.9670     0.9101
12846.200      0.9661     0.9104
12846.300      0.9650     0.9108
12846.400      0.9661     0.9113
12846.500      0.9701     0.9118
12846.600      0.9761     0.9122
12846.700      0.9828     0.9126
12846.800      0.9895     0.9129
12846.900      0.9950     0.9133
12847.000      0.9978     0.9136
12847.100      0.9939     0.9139
12847.200      0.9903     0.9143
12847.300      0.9904     0.9146
12847.400      0.9923     0.9149
12847.500      0.9962     0.9153
12847.600      1.0001     0.9156
12847.700      1.0005     0.9159
12847.800      0.9996     0.9162
12847.900      0.9981     0.9165
12848.000      0.9966     0.9169
12848.100      0.9959     0.9172
12848.200      0.9959     0.9175
12848.300      0.9962     0.9178
12848.400      0.9967     0.9181
12848.500      0.9976     0.9184
12848.600      0.9992     0.9187
12848.700      1.0011     0.9190
12848.800      1.0032     0.9193
12848.900      1.0050     0.9196
12849.000      1.0044     0.9199
12849.100      1.0038     0.9202
12849.200      1.0031     0.9205
12849.300      1.0024     0.9208
12849.400      1.0015     0.9211
12849.500      1.0006     0.9214
12849.600      1.0014     0.9216
12849.700      1.0028     0.9219
12849.800      1.0027     0.9222
12849.900      1.0014     0.9225
12850.000      0.9998     0.9228
12850.100      0.9981     0.9231
12850.200      0.9970     0.9234
12850.300      0.9972     0.9237
12850.400      0.9968     0.9240
12850.500      0.9947     0.9243
12850.600      0.9928     0.9246
12850.700      0.9927     0.9249
12850.800      0.9925     0.9252
12850.900      0.9922     0.9254
12851.000      0.9920     0.9257
12851.100      0.9931     0.9260
12851.200      0.9945     0.9263
12851.300      0.9957     0.9265
12851.400      0.9967     0.9268
12851.500      0.9971     0.9271
12851.600      0.9974     0.9273
12851.700      0.9991     0.9276
12851.800      1.0025     0.9279
12851.900      1.0053     0.9281
12852.000      1.0067     0.9284
12852.100      1.0081     0.9287
12852.200      1.0093     0.9289
12852.300      1.0104     0.9292
12852.400      1.0104     0.9295
12852.500      1.0094     0.9297
12852.600      1.0064     0.9300
12852.700      1.0035     0.9302
12852.800      1.0030     0.9305
12852.900      1.0030     0.9307
12853.000      1.0018     0.9310
12853.100      1.0002     0.9312
12853.200      0.9991     0.9315
12853.300      0.9990     0.9318
12853.400      1.0004     0.9320
12853.500      1.0027     0.9322
12853.600      1.0027     0.9325
12853.700      0.9988     0.9327
12853.800      0.9964     0.9330
12853.900      0.9987     0.9332
12854.000      1.0009     0.9335
12854.100      1.0020     0.9337
12854.200      1.0022     0.9340
12854.300      0.9995     0.9342
12854.400      0.9969     0.9344
12854.500      0.9976     0.9347
12854.600      0.9989     0.9349
12854.700      1.0000     0.9351
12854.800      1.0006     0.9354
12854.900      0.9987     0.9356
12855.000      0.9955     0.9358
12855.100      0.9927     0.9361
12855.200      0.9910     0.9363
12855.300      0.9915     0.9365
12855.400      0.9943     0.9368
12855.500      0.9970     0.9370
12855.600      0.9989     0.9372
12855.700      0.9991     0.9374
12855.800      0.9939     0.9377
12855.900      0.9888     0.9379
12856.000      0.9880     0.9381
12856.100      0.9895     0.9383
12856.200      0.9942     0.9385
12856.300      0.9991     0.9387
12856.400      1.0008     0.9389
12856.500      1.0005     0.9392
12856.600      0.9992     0.9394
12856.700      0.9977     0.9396
12856.800      0.9977     0.9398
12856.900      0.9991     0.9401
12857.000      1.0002     0.9403
12857.100      1.0004     0.9405
12857.200      0.9999     0.9407
12857.300      0.9990     0.9409
12857.400      0.9981     0.9411
12857.500      0.9980     0.9414
12857.600      0.9983     0.9416
12857.700      0.9994     0.9418
12857.800      1.0005     0.9420
12857.900      1.0015     0.9422
12858.000      1.0022     0.9424
12858.100      1.0024     0.9426
12858.200      1.0019     0.9428
12858.300      1.0003     0.9430
12858.400      0.9984     0.9432
12858.500      0.9971     0.9434
12858.600      0.9968     0.9436
12858.700      0.9972     0.9438
12858.800      0.9981     0.9440
12858.900      0.9993     0.9441
12859.000      1.0008     0.9443
12859.100      1.0021     0.9445
12859.200      1.0021     0.9447
12859.300      1.0021     0.9449
12859.400      1.0027     0.9451
12859.500      1.0033     0.9453
12859.600      1.0026     0.9455
12859.700      1.0018     0.9457
12859.800      1.0021     0.9459
12859.900      1.0027     0.9461
12860.000      1.0015     0.9463
12860.100      0.9994     0.9465
12860.200      0.9982     0.9467
12860.300      0.9980     0.9469
12860.400      0.9978     0.9470
12860.500      0.9974     0.9472
12860.600      0.9969     0.9474
12860.700      0.9963     0.9475
12860.800      0.9957     0.9477
12860.900      0.9961     0.9479
12861.000      0.9970     0.9481
12861.100      0.9986     0.9483
12861.200      1.0002     0.9485
12861.300      0.9995     0.9487
12861.400      0.9980     0.9489
12861.500      0.9958     0.9490
12861.600      0.9936     0.9492
12861.700      0.9946     0.9494
12861.800      0.9974     0.9495
12861.900      0.9994     0.9497
12862.000      1.0000     0.9498
12862.100      0.9992     0.9500
12862.200      0.9977     0.9502
12862.300      0.9963     0.9503
12862.400      0.9959     0.9504
12862.500      0.9962     0.9504
12862.600      0.9973     0.9504
12862.700      0.9987     0.9504
12862.800      1.0002     0.9505
12862.900      1.0017     0.9506
12863.000      1.0027     0.9509
12863.100      1.0033     0.9512
12863.200      1.0023     0.9516
12863.300      1.0010     0.9519
12863.400      1.0000     0.9521
12863.500      0.9993     0.9523
12863.600      0.9972     0.9525
12863.700      0.9939     0.9527
12863.800      0.9929     0.9529
12863.900      0.9955     0.9530
12864.000      0.9986     0.9532
12864.100      1.0018     0.9534
12864.200      1.0035     0.9535
12864.300      0.9979     0.9537
12864.400      0.9925     0.9538
12864.500      0.9915     0.9540
12864.600      0.9922     0.9541
12864.700      0.9946     0.9543
12864.800      0.9970     0.9545
12864.900      0.9991     0.9546
12865.000      1.0007     0.9548
12865.100      1.0018     0.9549
12865.200      1.0024     0.9551
12865.300      1.0023     0.9552
12865.400      1.0017     0.9554
12865.500      1.0008     0.9555
12865.600      0.9997     0.9556
12865.700      0.9988     0.9558
12865.800      0.9985     0.9559
12865.900      0.9981     0.9561
12866.000      0.9963     0.9562
12866.100      0.9929     0.9564
12866.200      0.9846     0.9565
12866.300      0.9762     0.9567
12866.400      0.9689     0.9568
12866.500      0.9630     0.9570
12866.600      0.9630     0.9571
12866.700      0.9658     0.9573
12866.800      0.9706     0.9574
12866.900      0.9757     0.9575
12867.000      0.9802     0.9577
12867.100      0.9838     0.9578
12867.200      0.9870     0.9580
12867.300      0.9901     0.9581
12867.400      0.9931     0.9582
12867.500      0.9960     0.9584
12867.600      0.9984     0.9585
12867.700      0.9995     0.9586
12867.800      1.0005     0.9588
12867.900      1.0014     0.9589
12868.000      1.0023     0.9590
12868.100      1.0016     0.9592
12868.200      1.0006     0.9593
12868.300      0.9995     0.9594
12868.400      0.9983     0.9596
12868.500      0.9978     0.9597
12868.600      0.9978     0.9598
12868.700      0.9979     0.9600
12868.800      0.9980     0.9601
12868.900      0.9965     0.9602
12869.000      0.9931     0.9603
12869.100      0.9922     0.9605
12869.200      0.9961     0.9606
12869.300      0.9994     0.9607
12869.400      1.0001     0.9608
12869.500      0.9997     0.9609
12869.600      0.9985     0.9610
12869.700      0.9973     0.9611
12869.800      0.9994     0.9612
12869.900      1.0015     0.9613
12870.000      1.0016     0.9614
12870.100      1.0009     0.9615
12870.200      1.0000     0.9614
12870.300      0.9990     0.9611
12870.400      0.9997     0.9602
12870.500      1.0016     0.9586
12870.600      1.0016     0.9564
12870.700      0.9994     0.9540
12870.800      0.9983     0.9525
12870.900      0.9991     0.9526
12871.000      0.9993     0.9544
12871.100      0.9972     0.9570
12871.200      0.9955     0.9595
12871.300      0.9974     0.9614
12871.400      0.9992     0.9625
12871.500      1.0003     0.9631
12871.600      1.0007     0.9634
12871.700      0.9995     0.9635
12871.800      0.9973     0.9637
12871.900      0.9946     0.9637
12872.000      0.9908     0.9638
12872.100      0.9815     0.9638
12872.200      0.9691     0.9639
12872.300      0.9584     0.9641
12872.400      0.9520     0.9642
12872.500      0.9501     0.9644
12872.600      0.9528     0.9646
12872.700      0.9584     0.9647
12872.800      0.9657     0.9649
12872.900      0.9724     0.9650
12873.000      0.9748     0.9650
12873.100      0.9772     0.9651
12873.200      0.9814     0.9651
12873.300      0.9862     0.9652
12873.400      0.9916     0.9653
12873.500      0.9971     0.9655
12873.600      0.9977     0.9657
12873.700      0.9967     0.9658
12873.800      0.9958     0.9660
12873.900      0.9951     0.9661
12874.000      0.9957     0.9662
12874.100      0.9974     0.9663
12874.200      0.9979     0.9665
12874.300      0.9964     0.9666
12874.400      0.9959     0.9667
12874.500      0.9982     0.9668
12874.600      1.0002     0.9669
12874.700      1.0000     0.9670
12874.800      0.9998     0.9671
12874.900      0.9996     0.9672
12875.000      0.9994     0.9673
12875.100      0.9955     0.9674
12875.200      0.9912     0.9675
12875.300      0.9884     0.9676
12875.400      0.9877     0.9677
12875.500      0.9904     0.9678
12875.600      0.9943     0.9679
12875.700      0.9979     0.9680
12875.800      1.0007     0.9681
12875.900      1.0020     0.9682
12876.000      1.0018     0.9683
12876.100      1.0013     0.9684
12876.200      1.0008     0.9685
12876.300      1.0003     0.9686
12876.400      0.9997     0.9687
12876.500      0.9992     0.9688
12876.600      1.0009     0.9689
12876.700      1.0026     0.9690
12876.800      1.0040     0.9691
12876.900      1.0049     0.9692
12877.000      1.0045     0.9693
12877.100      1.0038     0.9694
12877.200      1.0037     0.9694
12877.300      1.0041     0.9695
12877.400      1.0040     0.9696
12877.500      1.0036     0.9697
12877.600      1.0034     0.9698
12877.700      1.0036     0.9699
12877.800      1.0038     0.9700
12877.900      1.0033     0.9701
12878.000      1.0018     0.9701
12878.100      0.9988     0.9701
12878.200      0.9959     0.9701
12878.300      0.9988     0.9701
12878.400      1.0016     0.9702
12878.500      1.0033     0.9703
12878.600      1.0041     0.9705
12878.700      1.0045     0.9706
12878.800      1.0040     0.9708
12878.900      1.0018     0.9709
12879.000      0.9988     0.9709
12879.100      0.9977     0.9710
12879.200      0.9983     0.9710
12879.300      0.9987     0.9709
12879.400      0.9992     0.9707
12879.500      1.0000     0.9702
12879.600      1.0021     0.9695
12879.700      1.0037     0.9686
12879.800      1.0023     0.9677
12879.900      0.9992     0.9673
12880.000      0.9953     0.9675
12880.100      0.9891     0.9683
12880.200      0.9745     0.9693
12880.300      0.9591     0.9704
12880.400      0.9519     0.9712
12880.500      0.9517     0.9716
12880.600      0.9586     0.9719
12880.700      0.9671     0.9720
12880.800      0.9715     0.9720
12880.900      0.9723     0.9720
12881.000      0.9734     0.9720
12881.100      0.9752     0.9722
12881.200      0.9784     0.9724
12881.300      0.9837     0.9726
12881.400      0.9889     0.9728
12881.500      0.9917     0.9730
12881.600      0.9918     0.9730
12881.700      0.9830     0.9731
12881.800      0.9740     0.9731
12881.900      0.9650     0.9731
12882.000      0.9557     0.9732
12882.100      0.9430     0.9733
12882.200      0.9295     0.9735
12882.300      0.9193     0.9736
12882.400      0.9152     0.9738
12882.500      0.9204     0.9739
12882.600      0.9312     0.9740
12882.700      0.9434     0.9741
12882.800      0.9560     0.9742
12882.900      0.9684     0.9742
12883.000      0.9797     0.9743
12883.100      0.9894     0.9744
12883.200      0.9954     0.9745
12883.300      0.9987     0.9745
12883.400      0.9985     0.9746
12883.500      0.9983     0.9747
12883.600      0.9991     0.9747
12883.700      1.0000     0.9748
12883.800      1.0008     0.9749
12883.900      1.0017     0.9750
12884.000      1.0021     0.9750
12884.100      1.0017     0.9751
12884.200      0.9984     0.9752
12884.300      0.9934     0.9752
12884.400      0.9891     0.9753
12884.500      0.9871     0.9753
12884.600      0.9884     0.9753
12884.700      0.9930     0.9753
12884.800      0.9971     0.9753
12884.900      0.9989     0.9753
12885.000      0.9999     0.9754
12885.100      1.0005     0.9755
12885.200      1.0002     0.9756
12885.300      0.9972     0.9757
12885.400      0.9940     0.9758
12885.500      0.9924     0.9760
12885.600      0.9919     0.9761
12885.700      0.9922     0.9762
12885.800      0.9933     0.9763
12885.900      0.9960     0.9764
12886.000      0.9992     0.9765
12886.100      0.9999     0.9765
12886.200      0.9974     0.9766
12886.300      0.9967     0.9767
12886.400      0.9996     0.9767
12886.500      1.0025     0.9768
12886.600      1.0048     0.9769
12886.700      1.0059     0.9769
12886.800      1.0024     0.9770
12886.900      0.9988     0.9771
12887.000      0.9969     0.9771
12887.100      0.9963     0.9772
12887.200      0.9980     0.9773
12887.300      1.0000     0.9773
12887.400      1.0006     0.9774
12887.500      0.9996     0.9774
12887.600      0.9977     0.9775
12887.700      0.9946     0.9776
12887.800      0.9893     0.9776
12887.900      0.9825     0.9777
12888.000      0.9775     0.9778
12888.100      0.9765     0.9778
12888.200      0.9756     0.9779
12888.300      0.9748     0.9780
12888.400      0.9729     0.9780
12888.500      0.9578     0.9781
12888.600      0.9390     0.9781
12888.700      0.9171     0.9782
12888.800      0.8952     0.9783
12888.900      0.8818     0.9783
12889.000      0.8785     0.9784
12889.100      0.8919     0.9784
12889.200      0.9110     0.9785
12889.300      0.9316     0.9786
12889.400      0.9524     0.9786
12889.500      0.9706     0.9787
12889.600      0.9827     0.9787
12889.700      0.9906     0.9787
12889.800      0.9945     0.9788
12889.900      0.9944     0.9788
12890.000      0.9914     0.9789
12890.100      0.9890     0.9790
12890.200      0.9910     0.9790
12890.300      0.9931     0.9791
12890.400      0.9917     0.9792
12890.500      0.9887     0.9792
12890.600      0.9838     0.9793
12890.700      0.9787     0.9794
12890.800      0.9755     0.9794
12890.900      0.9745     0.9795
12891.000      0.9760     0.9796
12891.100      0.9786     0.9796
12891.200      0.9817     0.9797
12891.300      0.9849     0.9797
12891.400      0.9886     0.9798
12891.500      0.9924     0.9798
12891.600      0.9959     0.9799
12891.700      0.9978     0.9799
12891.800      0.9990     0.9800
12891.900      0.9997     0.9800
12892.000      1.0000     0.9801
12892.100      1.0001     0.9801
12892.200      0.9996     0.9802
12892.300      0.9968     0.9802
12892.400      0.9936     0.9802
12892.500      0.9912     0.9802
12892.600      0.9892     0.9802
12892.700      0.9870     0.9802
12892.800      0.9846     0.9802
12892.900      0.9809     0.9803
12893.000      0.9759     0.9804
12893.100      0.9704     0.9805
12893.200      0.9648     0.9806
12893.300      0.9603     0.9807
12893.400      0.9608     0.9808
12893.500      0.9637     0.9809
12893.600      0.9683     0.9809
12893.700      0.9738     0.9810
12893.800      0.9800     0.9810
12893.900      0.9862     0.9811
12894.000      0.9919     0.9811
12894.100      0.9967     0.9812
12894.200      0.9988     0.9812
12894.300      0.9988     0.9813
12894.400      0.9970     0.9813
12894.500      0.9947     0.9814
12894.600      0.9939     0.9814
12894.700      0.9946     0.9814
12894.800      0.9953     0.9815
12894.900      0.9955     0.9815
12895.000      0.9955     0.9816
12895.100      0.9951     0.9816
12895.200      0.9944     0.9817
12895.300      0.9933     0.9818
12895.400      0.9923     0.9818
12895.500      0.9959     0.9819
12895.600      0.9994     0.9819
12895.700      0.9998     0.9819
12895.800      0.9998     0.9819
12895.900      1.0004     0.9818
12896.000      1.0012     0.9818
12896.100      0.9995     0.9818
12896.200      0.9966     0.9818
12896.300      0.9957     0.9819
12896.400      0.9971     0.9820
12896.500      0.9987     0.9819
12896.600      1.0005     0.9814
12896.700      1.0017     0.9802
12896.800      1.0013     0.9779
12896.900      1.0003     0.9744
12897.000      0.9990     0.9704
12897.100      0.9977     0.9671
12897.200      0.9969     0.9661
12897.300      0.9967     0.9678
12897.400      0.9978     0.9715
12897.500      0.9990     0.9756
12897.600      0.9977     0.9789
12897.700      0.9958     0.9810
12897.800      0.9973     0.9821
12897.900      1.0006     0.9826
12898.000      1.0019     0.9829
12898.100      1.0015     0.9830
12898.200      1.0016     0.9830
12898.300      1.0021     0.9831
12898.400      1.0022     0.9832
12898.500      1.0008     0.9832
12898.600      0.9996     0.9832
12898.700      0.9994     0.9833
12898.800      1.0001     0.9833
12898.900      1.0026     0.9834
12899.000      1.0051     0.9834
12899.100      1.0007     0.9834
12899.200      0.9957     0.9834
12899.300      0.9960     0.9834
12899.400      0.9977     0.9832
12899.500      0.9974     0.9829
12899.600      0.9961     0.9824
12899.700      0.9964     0.9820
12899.800      0.9982     0.9817
12899.900      0.9966     0.9816
12900.000      0.9897     0.9814
12900.100      0.9818     0.9811
12900.200      0.9734     0.9809
12900.300      0.9658     0.9809
12900.400      0.9642     0.9812
12900.500      0.9665     0.9817
12900.600      0.9743     0.9824
12900.700      0.9822     0.9829
12900.800      0.9884     0.9833
12900.900      0.9930     0.9836
12901.000      0.9952     0.9838
12901.100      0.9964     0.9839
12901.200      0.9970     0.9841
12901.300      0.9974     0.9841
12901.400      0.9983     0.9842
12901.500      0.9996     0.9842
12901.600      0.9993     0.9843
12901.700      0.9971     0.9844
12901.800      0.9950     0.9845
12901.900      0.9933     0.9846
12902.000      0.9916     0.9846
12902.100      0.9899     0.9847
12902.200      0.9882     0.9847
12902.300      0.9860     0.9847
12902.400      0.9830     0.9847
12902.500      0.9761     0.9847
12902.600      0.9690     0.9848
12902.700      0.9698     0.9848
12902.800      0.9724     0.9847
12902.900      0.9744     0.9847
12903.000      0.9762     0.9845
12903.100      0.9804     0.9842
12903.200      0.9864     0.9839
12903.300      0.9920     0.9837
12903.400      0.9968     0.9837
12903.500      1.0006     0.9839
12903.600      1.0032     0.9842
12903.700      1.0044     0.9845
12903.800      1.0040     0.9848
12903.900      1.0029     0.9849
12904.000      1.0014     0.9849
12904.100      0.9998     0.9850
12904.200      1.0010     0.9851
12904.300      1.0023     0.9852
12904.400      1.0028     0.9854
12904.500      1.0029     0.9855
12904.600      1.0027     0.9856
12904.700      1.0021     0.9857
12904.800      1.0013     0.9857
12904.900      1.0003     0.9858
12905.000      1.0001     0.9858
12905.100      1.0012     0.9858
12905.200      1.0031     0.9859
12905.300      1.0054     0.9859
12905.400      1.0081     0.9859
12905.500      1.0112     0.9860
12905.600      1.0141     0.9860
12905.700      1.0144     0.9860
12905.800      1.0136     0.9861
12905.900      1.0123     0.9861
12906.000      1.0103     0.9862
12906.100      1.0069     0.9862
12906.200      1.0033     0.9862
12906.300      1.0020     0.9862
12906.400      1.0017     0.9863
12906.500      1.0011     0.9863
12906.600      1.0005     0.9863
12906.700      1.0013     0.9863
12906.800      1.0039     0.9864
12906.900      1.0063     0.9864
12907.000      1.0069     0.9865
12907.100      1.0048     0.9865
12907.200      0.9981     0.9865
12907.300      0.9926     0.9866
12907.400      0.9974     0.9866
12907.500      1.0022     0.9866
12907.600      1.0040     0.9866
12907.700      1.0045     0.9866
12907.800      1.0034     0.9867
12907.900      1.0022     0.9867
12908.000      1.0025     0.9867
12908.100      1.0035     0.9867
12908.200      1.0024     0.9867
12908.300      1.0001     0.9868
12908.400      0.9990     0.9868
12908.500      0.9999     0.9868
12908.600      1.0016     0.9869
12908.700      1.0036     0.9868
12908.800      1.0054     0.9867
12908.900      1.0057     0.9866
12909.000      1.0049     0.9865
12909.100      1.0027     0.9865
12909.200      1.0005     0.9866
12909.300      0.9998     0.9868
12909.400      0.9991     0.9870
12909.500      0.9934     0.9871
12909.600      0.9869     0.9872
12909.700      0.9852     0.9871
12909.800      0.9869     0.9871
12909.900      0.9906     0.9869
12910.000      0.9947     0.9866
12910.100      0.9963     0.9863
12910.200      0.9954     0.9861
12910.300      0.9961     0.9860
12910.400      0.9997     0.9861
12910.500      1.0029     0.9864
12910.600      1.0042     0.9868
12910.700      1.0043     0.9871
12910.800      1.0032     0.9874
12910.900      1.0011     0.9875
12911.000      0.9979     0.9876
12911.100      0.9946     0.9877
12911.200      0.9952     0.9877
12911.300      0.9964     0.9878
12911.400      0.9978     0.9878
12911.500      0.9991     0.9878
12911.600      0.9994     0.9879
12911.700      0.9991     0.9879
12911.800      0.9986     0.9879
12911.900      0.9981     0.9880
12912.000      0.9990     0.9880
12912.100      1.0020     0.9880
12912.200      1.0040     0.9881
12912.300      1.0026     0.9881
12912.400      1.0016     0.9881
12912.500      1.0026     0.9881
12912.600      1.0036     0.9882
12912.700      1.0028     0.9882
12912.800      1.0010     0.9882
12912.900      0.9978     0.9882
12913.000      0.9945     0.9882
12913.100      0.9927     0.9882
12913.200      0.9928     0.9882
12913.300      0.9960     0.9882
12913.400      1.0002     0.9882
12913.500      1.0027     0.9882
12913.600      1.0028     0.9883
12913.700      1.0015     0.9883
12913.800      0.9997     0.9884
12913.900      0.9993     0.9884
12914.000      1.0026     0.9884
12914.100      1.0059     0.9884
12914.200      1.0078     0.9885
12914.300      1.0086     0.9885
12914.400      1.0065     0.9886
12914.500      1.0044     0.9886
12914.600      1.0034     0.9886
12914.700      1.0033     0.9887
12914.800      1.0041     0.9887
12914.900      1.0051     0.9887
12915.000      1.0026     0.9887
12915.100      0.9981     0.9888
12915.200      0.9956     0.9888
12915.300      0.9964     0.9888
12915.400      0.9992     0.9889
12915.500      1.0031     0.9889
12915.600      1.0058     0.9889
12915.700      1.0049     0.9889
12915.800      1.0032     0.9889
12915.900      1.0011     0.9889
12916.000      0.9991     0.9889
12916.100      0.9992     0.9889
12916.200      0.9993     0.9890
12916.300      0.9931     0.9890
12916.400      0.9863     0.9891
12916.500      0.9806     0.9891
12916.600      0.9764     0.9892
12916.700      0.9744     0.9892
12916.800      0.9730     0.9892
12916.900      0.9615     0.9892
12917.000      0.9394     0.9892
12917.100      0.9152     0.9892
12917.200      0.8905     0.9892
12917.300      0.8709     0.9892
12917.400      0.8707     0.9892
12917.500      0.8804     0.9893
12917.600      0.8979     0.9894
12917.700      0.9186     0.9894
12917.800      0.9414     0.9895
12917.900      0.9642     0.9895
12918.000      0.9813     0.9895
12918.100      0.9933     0.9896
12918.200      0.9975     0.9896
12918.300      0.9983     0.9896
12918.400      0.9969     0.9896
12918.500      0.9949     0.9897
12918.600      0.9927     0.9897
12918.700      0.9903     0.9897
12918.800      0.9866     0.9897
12918.900      0.9815     0.9897
12919.000      0.9799     0.9897
12919.100      0.9862     0.9897
12919.200      0.9921     0.9897
12919.300      0.9948     0.9897
12919.400      0.9970     0.9897
12919.500      0.9991     0.9897
12919.600      1.0006     0.9897
12919.700      0.9995     0.9898
12919.800      0.9982     0.9898
12919.900      0.9971     0.9899
12920.000      0.9962     0.9899
12920.100      0.9897     0.9899
12920.200      0.9791     0.9899
12920.300      0.9666     0.9899
12920.400      0.9536     0.9899
12920.500      0.9428     0.9899
12920.600      0.9384     0.9900
12920.700      0.9400     0.9900
12920.800      0.9483     0.9901
12920.900      0.9608     0.9902
12921.000      0.9762     0.9902
12921.100      0.9913     0.9902
12921.200      0.9993     0.9902
12921.300      1.0032     0.9902
12921.400      1.0013     0.9901
12921.500      0.9992     0.9901
12921.600      1.0001     0.9901
12921.700      1.0017     0.9901
12921.800      1.0018     0.9902
12921.900      0.9997     0.9902
12922.000      0.9945     0.9903
12922.100      0.9880     0.9904
12922.200      0.9856     0.9904
12922.300      0.9883     0.9904
12922.400      0.9902     0.9905
12922.500      0.9903     0.9905
12922.600      0.9916     0.9905
12922.700      0.9971     0.9906
12922.800      1.0018     0.9906
12922.900      0.9979     0.9906
12923.000      0.9941     0.9906
12923.100      0.9907     0.9907
12923.200      0.9882     0.9907
12923.300      0.9910     0.9907
12923.400      0.9948     0.9907
12923.500      0.9950     0.9907
12923.600      0.9937     0.9908
12923.700      0.9955     0.9908
12923.800      0.9994     0.9908
12923.900      1.0027     0.9908
12924.000      1.0043     0.9908
12924.100      1.0043     0.9909
12924.200      1.0029     0.9909
12924.300      1.0018     0.9909
12924.400      1.0011     0.9909
12924.500      1.0004     0.9909
12924.600      0.9995     0.9910
12924.700      0.9986     0.9910
12924.800      0.9977     0.9910
12924.900      0.9969     0.9910
12925.000      0.9977     0.9910
12925.100      0.9987     0.9910
12925.200      0.9998     0.9911
12925.300      1.0008     0.9911
12925.400      0.9991     0.9911
12925.500      0.9955     0.9910
12925.600      0.9937     0.9909
12925.700      0.9938     0.9906
12925.800      0.9914     0.9903
12925.900      0.9841     0.9900
12926.000      0.9772     0.9899
12926.100      0.9719     0.9899
12926.200      0.9666     0.9902
12926.300      0.9606     0.9906
12926.400      0.9537     0.9909
12926.500      0.9415     0.9911
12926.600      0.9292     0.9912
12926.700      0.9241     0.9913
12926.800      0.9265     0.9913
12926.900      0.9403     0.9914
12927.000      0.9568     0.9914
12927.100      0.9719     0.9914
12927.200      0.9839     0.9914
12927.300      0.9910     0.9915
12927.400      0.9945     0.9915
12927.500      0.9970     0.9915
12927.600      0.9991     0.9915
12927.700      1.0006     0.9915
12927.800      1.0018     0.9915
12927.900      1.0026     0.9916
12928.000      1.0033     0.9916
12928.100      1.0035     0.9916
12928.200      1.0003     0.9916
12928.300      0.9970     0.9916
12928.400      0.9963     0.9916
12928.500      0.9970     0.9916
12928.600      0.9987     0.9916
12928.700      1.0007     0.9916
12928.800      1.0018     0.9915
12928.900      1.0015     0.9915
12929.000      0.9992     0.9915
12929.100      0.9958     0.9916
12929.200      0.9930     0.9917
12929.300      0.9912     0.9917
12929.400      0.9888     0.9918
12929.500      0.9844     0.9918
12929.600      0.9806     0.9918
12929.700      0.9808     0.9919
12929.800      0.9810     0.9919
12929.900      0.9794     0.9919
12930.000      0.9779     0.9919
12930.100      0.9799     0.9919
12930.200      0.9833     0.9920
12930.300      0.9876     0.9920
12930.400      0.9919     0.9920
12930.500      0.9950     0.9920
12930.600      0.9968     0.9920
12930.700      0.9979     0.9920
12930.800      0.9984     0.9920
12930.900      0.9974     0.9920
12931.000      0.9952     0.9920
12931.100      0.9943     0.9920
12931.200      0.9973     0.9920
12931.300      1.0003     0.9921
12931.400      1.0019     0.9921
12931.500      1.0027     0.9921
12931.600      1.0021     0.9922
12931.700      1.0015     0.9922
12931.800      1.0013     0.9922
12931.900      1.0010     0.9922
12932.000      0.9972     0.9922
12932.100      0.9922     0.9923
12932.200      0.9926     0.9923
12932.300      0.9959     0.9923
12932.400      0.9969     0.9923
12932.500      0.9957     0.9923
12932.600      0.9945     0.9923
12932.700      0.9934     0.9922
12932.800      0.9937     0.9922
12932.900      0.9972     0.9921
12933.000      1.0006     0.9920
12933.100      1.0030     0.9920
12933.200      1.0041     0.9920
12933.300      1.0008     0.9921
12933.400      0.9974     0.9922
12933.500      0.9982     0.9924
12933.600      0.9993     0.9924
12933.700      0.9988     0.9925
12933.800      0.9978     0.9925
12933.900      0.9983     0.9925
12934.000      0.9997     0.9925
12934.100      0.9994     0.9925
12934.200      0.9976     0.9924
12934.300      0.9961     0.9922
12934.400      0.9960     0.9918
12934.500      0.9981     0.9910
12934.600      1.0029     0.9898
12934.700      1.0062     0.9882
12934.800      1.0011     0.9863
12934.900      0.9960     0.9847
12935.000      0.9940     0.9840
12935.100      0.9942     0.9847
12935.200      0.9984     0.9866
12935.300      1.0028     0.9888
12935.400      1.0006     0.9906
12935.500      0.9967     0.9918
12935.600      0.9989     0.9924
12935.700      1.0043     0.9927
12935.800      1.0068     0.9927
12935.900      1.0069     0.9928
12936.000      1.0073     0.9928
12936.100      1.0081     0.9928
12936.200      1.0083     0.9928
12936.300      1.0071     0.9929
12936.400      1.0058     0.9929
12936.500      1.0046     0.9929
12936.600      1.0037     0.9929
12936.700      1.0096     0.9929
12936.800      1.0154     0.9929
12936.900      1.0148     0.9929
12937.000      1.0132     0.9929
12937.100      1.0113     0.9929
12937.200      1.0092     0.9930
12937.300      1.0088     0.9930
12937.400      1.0092     0.9930
12937.500      1.0062     0.9930
12937.600      1.0005     0.9930
12937.700      0.9973     0.9930
12937.800      0.9977     0.9931
12937.900      0.9977     0.9931
12938.000      0.9951     0.9931
12938.100      0.9880     0.9931
12938.200      0.9716     0.9931
12938.300      0.9556     0.9931
12938.400      0.9498     0.9931
12938.500      0.9504     0.9931
12938.600      0.9606     0.9931
12938.700      0.9716     0.9931
12938.800      0.9831     0.9931
12938.900      0.9945     0.9932
12939.000      1.0006     0.9932
12939.100      1.0022     0.9932
12939.200      1.0021     0.9931
12939.300      1.0008     0.9931
12939.400      0.9976     0.9931
12939.500      0.9935     0.9931
12939.600      0.9891     0.9930
12939.700      0.9847     0.9930
12939.800      0.9821     0.9930
12939.900      0.9879     0.9931
12940.000      0.9936     0.9931
12940.100      0.9969     0.9931
12940.200      0.9991     0.9932
12940.300      0.9997     0.9932
12940.400      1.0003     0.9932
12940.500      1.0026     0.9931
12940.600      1.0053     0.9930
12940.700      1.0018     0.9927
12940.800      0.9949     0.9925
12940.900      0.9871     0.9923
12941.000      0.9791     0.9922
12941.100      0.9726     0.9924
12941.200      0.9699     0.9926
12941.300      0.9700     0.9928
12941.400      0.9731     0.9930
12941.500      0.9791     0.9931
12941.600      0.9876     0.9933
12941.700      0.9959     0.9934
12941.800      1.0009     0.9935
12941.900      1.0051     0.9935
12942.000      1.0088     0.9936
12942.100      1.0118     0.9936
12942.200      1.0137     0.9936
12942.300      1.0140     0.9936
12942.400      1.0112     0.9935
12942.500      1.0076     0.9935
12942.600      1.0050     0.9935
12942.700      1.0030     0.9936
12942.800      1.0004     0.9936
12942.900      0.9973     0.9937
12943.000      0.9964     0.9937
12943.100      0.9998     0.9937
12943.200      1.0026     0.9937
12943.300      1.0035     0.9937
12943.400      1.0043     0.9938
12943.500      1.0053     0.9938
12943.600      1.0063     0.9938
12943.700      1.0018     0.9938
12943.800      0.9972     0.9938
12943.900      0.9992     0.9938
12944.000      1.0025     0.9938
12944.100      1.0012     0.9938
12944.200      0.9982     0.9939
12944.300      0.9960     0.9939
12944.400      0.9953     0.9939
12944.500      0.9959     0.9939
12944.600      0.9972     0.9939
12944.700      0.9966     0.9939
12944.800      0.9925     0.9939
12944.900      0.9898     0.9940
12945.000      0.9917     0.9940
12945.100      0.9935     0.9940
12945.200      0.9928     0.9940
12945.300      0.9911     0.9940
12945.400      0.9885     0.9940
12945.500      0.9850     0.9940
12945.600      0.9818     0.9940
12945.700      0.9787     0.9940
12945.800      0.9756     0.9940
12945.900      0.9725     0.9940
12946.000      0.9695     0.9940
12946.100      0.9664     0.9940
12946.200      0.9633     1.0000
12946.300      0.9602     1.0000
12946.400      0.9571     1.0000
12946.500      0.9540     1.0000
12946.600      0.9509     1.0000
12946.700      0.9478     1.0000
12946.800      0.9447     1.0000
12946.900      0.9416     1.0000
12947.000      0.9386     1.0000
